# Tempo(s) E[W]
10.0 2.042466
20.0 4.431165
30.0 7.586788
40.0 7.323162
50.0 7.090925
60.0 6.174441
70.0 6.192746
80.0 7.755789
90.0 8.381919
100.0 9.324158
110.0 10.140634
120.0 11.326291
130.0 12.308340
140.0 13.419471
150.0 14.606560
160.0 15.689636
170.0 16.912608
180.0 17.304907
190.0 17.957747
200.0 18.048618
210.0 18.094637
220.0 18.290655
230.0 18.211212
240.0 18.022378
250.0 17.772136
260.0 17.685267
270.0 17.374210
280.0 16.830288
290.0 16.514804
300.0 16.049939
310.0 15.697093
320.0 15.529072
330.0 15.250684
340.0 14.796250
350.0 14.576704
360.0 14.365730
370.0 13.911308
380.0 13.634737
390.0 13.312208
400.0 13.242700
410.0 13.146654
420.0 13.235885
430.0 13.230418
440.0 13.097416
450.0 12.924216
460.0 12.763971
470.0 12.800556
480.0 12.580036
490.0 12.631572
500.0 12.871816
510.0 12.878356
520.0 13.039145
530.0 12.850784
540.0 12.801077
550.0 12.731540
560.0 12.583423
570.0 12.399625
580.0 12.281734
590.0 12.180866
600.0 12.009322
610.0 11.820672
620.0 11.755103
630.0 11.651027
640.0 11.475585
650.0 11.355066
660.0 11.196169
670.0 11.185037
680.0 11.070685
690.0 10.974297
700.0 10.832545
710.0 10.728821
720.0 10.654329
730.0 10.711087
740.0 10.707890
750.0 10.712307
760.0 10.597865
770.0 10.377851
780.0 10.360128
790.0 10.257768
800.0 10.157645
810.0 10.119960
820.0 10.171039
830.0 10.286778
840.0 10.308346
850.0 10.251378
860.0 10.141184
870.0 10.013010
880.0 10.027319
890.0 10.137960
900.0 10.193036
910.0 10.325842
920.0 10.466118
930.0 10.535567
940.0 10.559939
950.0 10.560808
960.0 10.626294
970.0 10.661755
980.0 10.720079
990.0 10.782303
1000.0 10.849167
1010.0 10.940368
1020.0 11.112586
1030.0 11.357072
1040.0 11.602911
1050.0 11.822486
1060.0 12.017694
1070.0 12.216078
1080.0 12.395340
1090.0 12.447661
1100.0 12.574061
1110.0 12.642329
1120.0 12.679331
1130.0 12.628486
1140.0 12.495775
1150.0 12.413181
1160.0 12.344098
1170.0 12.264016
1180.0 12.257386
1190.0 12.235268
1200.0 12.266241
1210.0 12.260636
1220.0 12.229449
1230.0 12.163169
1240.0 12.111746
1250.0 12.019209
1260.0 11.966774
1270.0 12.004680
1280.0 12.055939
1290.0 12.035672
1300.0 12.136431
1310.0 12.252214
1320.0 12.338152
1330.0 12.394410
1340.0 12.423533
1350.0 12.446999
1360.0 12.412260
1370.0 12.379370
1380.0 12.344076
1390.0 12.307540
1400.0 12.322871
1410.0 12.287716
1420.0 12.202500
1430.0 12.161171
1440.0 12.150732
1450.0 12.158041
1460.0 12.179185
1470.0 12.228806
1480.0 12.293140
1490.0 12.401602
1500.0 12.546112
1510.0 12.701181
1520.0 12.796725
1530.0 13.014708
1540.0 13.193228
1550.0 13.325314
1560.0 13.466874
1570.0 13.731628
1580.0 13.925966
1590.0 14.157246
1600.0 14.339636
1610.0 14.545261
1620.0 14.740498
1630.0 14.963984
1640.0 15.283129
1650.0 15.474579
1660.0 15.761254
1670.0 15.991373
1680.0 16.234446
1690.0 16.426011
1700.0 16.598822
1710.0 16.789119
1720.0 16.997056
1730.0 17.135100
1740.0 17.364909
1750.0 17.539795
1760.0 17.703030
1770.0 17.857583
1780.0 18.000512
1790.0 18.188833
1800.0 18.427038
1810.0 18.622832
1820.0 18.871262
1830.0 19.074860
1840.0 19.269891
1850.0 19.469988
1860.0 19.650083
1870.0 19.906152
1880.0 20.108317
1890.0 20.276696
1900.0 20.447489
1910.0 20.569657
1920.0 20.668508
1930.0 20.776839
1940.0 20.896672
1950.0 21.075001
1960.0 21.228345
1970.0 21.417996
1980.0 21.627296
1990.0 21.781998
2000.0 21.878635
2010.0 21.998340
2020.0 22.086829
2030.0 22.181996
2040.0 22.306009
2050.0 22.436830
2060.0 22.511187
2070.0 22.603780
2080.0 22.674377
2090.0 22.711715
2100.0 22.757117
2110.0 22.832240
2120.0 22.879929
2130.0 22.912942
2140.0 22.943256
2150.0 23.043606
2160.0 23.157831
2170.0 23.248468
2180.0 23.318626
2190.0 23.389982
2200.0 23.398338
2210.0 23.385024
2220.0 23.457088
2230.0 23.484105
2240.0 23.522951
2250.0 23.552108
2260.0 23.565797
2270.0 23.615837
2280.0 23.672782
2290.0 23.634942
2300.0 23.620692
2310.0 23.622536
2320.0 23.596705
2330.0 23.595622
2340.0 23.616301
2350.0 23.610887
2360.0 23.598347
2370.0 23.470001
2380.0 23.421555
2390.0 23.309603
2400.0 23.232090
2410.0 23.167203
2420.0 23.122980
2430.0 23.050005
2440.0 22.981016
2450.0 22.956983
2460.0 22.899951
2470.0 22.826313
2480.0 22.746890
2490.0 22.653201
2500.0 22.563742
2510.0 22.471950
2520.0 22.412175
2530.0 22.349022
2540.0 22.262652
2550.0 22.181906
2560.0 22.117996
2570.0 22.033810
2580.0 21.983190
2590.0 21.949829
2600.0 21.884075
2610.0 21.795967
2620.0 21.740048
2630.0 21.702291
2640.0 21.603630
2650.0 21.534572
2660.0 21.519898
2670.0 21.494732
2680.0 21.454563
2690.0 21.387416
2700.0 21.301934
2710.0 21.237391
2720.0 21.160504
2730.0 21.123660
2740.0 21.100246
2750.0 21.004917
2760.0 20.958286
2770.0 20.910412
2780.0 20.848411
2790.0 20.773994
2800.0 20.728552
2810.0 20.682011
2820.0 20.628646
2830.0 20.579040
2840.0 20.510067
2850.0 20.442113
2860.0 20.359567
2870.0 20.340991
2880.0 20.262108
2890.0 20.191290
2900.0 20.157406
2910.0 20.073755
2920.0 20.065156
2930.0 19.996455
2940.0 20.017275
2950.0 19.960209
2960.0 19.941763
2970.0 19.933344
2980.0 19.957250
2990.0 19.908652
3000.0 19.863239
3010.0 19.892538
3020.0 19.908470
3030.0 19.904856
3040.0 19.881966
3050.0 19.873294
3060.0 19.881744
3070.0 19.846861
3080.0 19.766669
3090.0 19.756436
3100.0 19.753528
3110.0 19.655176
3120.0 19.610008
3130.0 19.556939
3140.0 19.529309
3150.0 19.489123
3160.0 19.390976
3170.0 19.326426
3180.0 19.295212
3190.0 19.306862
3200.0 19.302032
3210.0 19.317900
3220.0 19.287097
3230.0 19.295829
3240.0 19.242133
3250.0 19.228932
3260.0 19.183909
3270.0 19.208984
3280.0 19.179382
3290.0 19.170175
3300.0 19.182598
3310.0 19.203186
3320.0 19.223018
3330.0 19.235302
3340.0 19.230045
3350.0 19.207173
3360.0 19.196679
3370.0 19.162875
3380.0 19.118513
3390.0 19.051958
3400.0 19.017656
3410.0 18.967750
3420.0 18.950792
3430.0 18.895285
3440.0 18.835064
3450.0 18.780063
3460.0 18.720011
3470.0 18.700940
3480.0 18.676169
3490.0 18.671613
3500.0 18.673115
3510.0 18.660984
3520.0 18.675339
3530.0 18.676125
3540.0 18.681277
3550.0 18.692262
3560.0 18.676325
3570.0 18.672619
3580.0 18.660330
3590.0 18.652613
3600.0 18.631054
3610.0 18.605861
3620.0 18.548168
3630.0 18.521772
3640.0 18.478960
3650.0 18.461746
3660.0 18.439387
3670.0 18.419286
3680.0 18.388926
3690.0 18.359774
3700.0 18.300875
3710.0 18.249060
3720.0 18.194605
3730.0 18.157646
3740.0 18.120217
3750.0 18.069122
3760.0 18.044539
3770.0 18.012846
3780.0 17.984851
3790.0 17.939511
3800.0 17.921781
3810.0 17.874212
3820.0 17.862212
3830.0 17.817680
3840.0 17.774785
3850.0 17.761351
3860.0 17.754175
3870.0 17.758011
3880.0 17.808565
3890.0 17.852934
3900.0 17.892468
3910.0 17.919485
3920.0 17.932062
3930.0 17.931601
3940.0 17.948681
3950.0 17.964297
3960.0 17.951552
3970.0 17.940104
3980.0 17.932121
3990.0 17.969139
4000.0 18.003651
4010.0 18.009059
4020.0 17.992948
4030.0 17.977006
4040.0 17.951236
4050.0 17.928446
4060.0 17.869633
4070.0 17.855669
4080.0 17.807889
4090.0 17.788239
4100.0 17.746928
4110.0 17.713544
4120.0 17.701331
4130.0 17.675638
4140.0 17.633354
4150.0 17.575217
4160.0 17.544918
4170.0 17.515500
4180.0 17.508846
4190.0 17.478218
4200.0 17.460371
4210.0 17.441530
4220.0 17.403959
4230.0 17.379274
4240.0 17.339933
4250.0 17.318215
4260.0 17.288446
4270.0 17.269496
4280.0 17.223145
4290.0 17.171191
4300.0 17.144167
4310.0 17.124067
4320.0 17.080316
4330.0 17.061851
4340.0 17.048747
4350.0 17.040431
4360.0 17.036018
4370.0 17.063530
4380.0 17.080161
4390.0 17.098606
4400.0 17.075972
4410.0 17.057089
4420.0 17.041377
4430.0 17.063555
4440.0 17.075867
4450.0 17.127185
4460.0 17.171763
4470.0 17.240492
4480.0 17.315728
4490.0 17.386162
4500.0 17.435926
4510.0 17.503698
4520.0 17.571404
4530.0 17.623780
4540.0 17.669484
4550.0 17.714309
4560.0 17.740947
4570.0 17.746402
4580.0 17.774762
4590.0 17.838177
4600.0 17.901399
4610.0 17.933384
4620.0 17.984139
4630.0 18.003979
4640.0 18.025135
4650.0 18.051677
4660.0 18.064525
4670.0 18.066360
4680.0 18.081384
4690.0 18.087554
4700.0 18.115440
4710.0 18.163552
4720.0 18.199521
4730.0 18.230122
4740.0 18.248032
4750.0 18.276293
4760.0 18.279989
4770.0 18.298355
4780.0 18.269982
4790.0 18.263528
4800.0 18.235270
4810.0 18.189108
4820.0 18.156170
4830.0 18.113866
4840.0 18.083073
4850.0 18.046709
4860.0 18.017745
4870.0 17.992984
4880.0 17.963860
4890.0 17.921743
4900.0 17.897810
4910.0 17.896681
4920.0 17.864307
4930.0 17.854046
4940.0 17.834614
4950.0 17.813610
4960.0 17.799721
4970.0 17.774814
4980.0 17.749814
4990.0 17.724670
5000.0 17.721584
5010.0 17.676991
5020.0 17.636784
5030.0 17.614080
5040.0 17.600677
5050.0 17.561375
5060.0 17.526759
5070.0 17.503050
5080.0 17.478576
5090.0 17.459643
5100.0 17.428189
5110.0 17.396601
5120.0 17.364195
5130.0 17.327840
5140.0 17.291369
5150.0 17.264601
5160.0 17.240709
5170.0 17.226359
5180.0 17.175279
5190.0 17.146922
5200.0 17.122439
5210.0 17.102717
5220.0 17.084773
5230.0 17.057882
5240.0 17.024660
5250.0 17.009838
5260.0 17.025103
5270.0 17.005183
5280.0 16.990660
5290.0 16.997172
5300.0 17.009688
5310.0 16.978848
5320.0 16.946560
5330.0 16.927809
5340.0 16.903298
5350.0 16.868787
5360.0 16.862926
5370.0 16.865438
5380.0 16.845795
5390.0 16.841018
5400.0 16.820789
5410.0 16.769168
5420.0 16.755209
5430.0 16.731824
5440.0 16.718605
5450.0 16.699031
5460.0 16.667233
5470.0 16.655484
5480.0 16.649048
5490.0 16.630821
5500.0 16.617232
5510.0 16.574644
5520.0 16.538644
5530.0 16.538052
5540.0 16.529109
5550.0 16.509077
5560.0 16.490246
5570.0 16.464927
5580.0 16.452149
5590.0 16.428798
5600.0 16.400761
5610.0 16.382466
5620.0 16.361292
5630.0 16.342567
5640.0 16.310218
5650.0 16.294327
5660.0 16.272649
5670.0 16.249523
5680.0 16.215121
5690.0 16.188957
5700.0 16.159920
5710.0 16.150664
5720.0 16.129186
5730.0 16.111584
5740.0 16.086678
5750.0 16.067222
5760.0 16.046848
5770.0 16.027155
5780.0 16.001639
5790.0 15.993333
5800.0 15.983143
5810.0 15.971984
5820.0 15.967230
5830.0 15.945278
5840.0 15.910574
5850.0 15.897676
5860.0 15.889127
5870.0 15.872682
5880.0 15.863028
5890.0 15.867171
5900.0 15.857277
5910.0 15.860829
5920.0 15.852663
5930.0 15.841708
5940.0 15.833236
5950.0 15.837349
5960.0 15.820097
5970.0 15.808560
5980.0 15.784063
5990.0 15.773478
6000.0 15.765095
6010.0 15.743481
6020.0 15.742004
6030.0 15.722751
6040.0 15.714289
6050.0 15.711501
6060.0 15.714175
6070.0 15.718261
6080.0 15.706327
6090.0 15.678225
6100.0 15.683269
6110.0 15.669669
6120.0 15.673258
6130.0 15.654858
6140.0 15.643513
6150.0 15.635018
6160.0 15.640298
6170.0 15.642708
6180.0 15.627055
6190.0 15.621597
6200.0 15.609582
6210.0 15.588779
6220.0 15.572879
6230.0 15.551621
6240.0 15.533332
6250.0 15.503219
6260.0 15.504568
6270.0 15.505748
6280.0 15.511049
6290.0 15.483198
6300.0 15.465223
6310.0 15.448511
6320.0 15.434601
6330.0 15.429352
6340.0 15.399783
6350.0 15.381929
6360.0 15.360093
6370.0 15.341504
6380.0 15.315981
6390.0 15.304311
6400.0 15.290216
6410.0 15.264969
6420.0 15.246810
6430.0 15.239078
6440.0 15.223543
6450.0 15.217626
6460.0 15.227768
6470.0 15.207051
6480.0 15.220038
6490.0 15.227173
6500.0 15.214555
6510.0 15.200658
6520.0 15.188178
6530.0 15.175312
6540.0 15.163623
6550.0 15.149262
6560.0 15.135437
6570.0 15.122662
6580.0 15.119702
6590.0 15.100690
6600.0 15.081215
6610.0 15.071961
6620.0 15.035125
6630.0 15.022696
6640.0 15.003753
6650.0 14.972132
6660.0 14.955456
6670.0 14.946386
6680.0 14.947228
6690.0 14.947936
6700.0 14.936738
6710.0 14.925382
6720.0 14.911736
6730.0 14.902498
6740.0 14.879957
6750.0 14.869191
6760.0 14.854700
6770.0 14.846142
6780.0 14.828561
6790.0 14.812241
6800.0 14.804012
6810.0 14.784863
6820.0 14.766417
6830.0 14.754287
6840.0 14.745094
6850.0 14.727349
6860.0 14.716456
6870.0 14.701656
6880.0 14.698786
6890.0 14.679618
6900.0 14.663724
6910.0 14.645129
6920.0 14.629720
6930.0 14.619247
6940.0 14.602097
6950.0 14.582140
6960.0 14.569820
6970.0 14.553390
6980.0 14.540417
6990.0 14.529348
7000.0 14.508615
7010.0 14.493352
7020.0 14.489933
7030.0 14.496140
7040.0 14.478326
7050.0 14.467103
7060.0 14.439482
7070.0 14.435070
7080.0 14.432435
7090.0 14.431039
7100.0 14.415162
7110.0 14.407708
7120.0 14.396867
7130.0 14.377258
7140.0 14.363582
7150.0 14.347042
7160.0 14.336038
7170.0 14.325059
7180.0 14.312917
7190.0 14.282354
7200.0 14.266783
7210.0 14.256056
7220.0 14.237436
7230.0 14.229557
7240.0 14.229069
7250.0 14.213548
7260.0 14.196102
7270.0 14.184183
7280.0 14.166364
7290.0 14.161080
7300.0 14.154602
7310.0 14.142235
7320.0 14.132116
7330.0 14.123157
7340.0 14.110812
7350.0 14.102345
7360.0 14.095330
7370.0 14.082305
7380.0 14.077395
7390.0 14.062628
7400.0 14.054208
7410.0 14.032637
7420.0 14.024063
7430.0 14.025644
7440.0 14.018110
7450.0 14.006651
7460.0 14.000175
7470.0 13.989620
7480.0 13.974460
7490.0 13.968778
7500.0 13.961485
7510.0 13.953893
7520.0 13.945675
7530.0 13.938977
7540.0 13.930828
7550.0 13.940379
7560.0 13.932579
7570.0 13.931312
7580.0 13.917055
7590.0 13.907731
7600.0 13.907967
7610.0 13.896786
7620.0 13.882725
7630.0 13.872187
7640.0 13.862443
7650.0 13.849397
7660.0 13.837989
7670.0 13.827213
7680.0 13.811177
7690.0 13.801285
7700.0 13.782881
7710.0 13.774592
7720.0 13.765713
7730.0 13.759526
7740.0 13.743869
7750.0 13.738309
7760.0 13.730909
7770.0 13.715216
7780.0 13.709894
7790.0 13.687475
7800.0 13.670695
7810.0 13.657082
7820.0 13.644231
7830.0 13.641852
7840.0 13.636418
7850.0 13.617880
7860.0 13.618845
7870.0 13.616940
7880.0 13.596128
7890.0 13.598559
7900.0 13.611062
7910.0 13.607557
7920.0 13.595920
7930.0 13.578855
7940.0 13.571049
7950.0 13.552609
7960.0 13.555585
7970.0 13.559308
7980.0 13.560386
7990.0 13.561230
8000.0 13.558428
8010.0 13.560554
8020.0 13.552680
8030.0 13.538170
8040.0 13.518854
8050.0 13.508192
8060.0 13.497638
8070.0 13.490186
8080.0 13.474993
8090.0 13.456459
8100.0 13.456579
8110.0 13.460521
8120.0 13.447283
8130.0 13.436377
8140.0 13.443048
8150.0 13.449788
8160.0 13.458266
8170.0 13.458703
8180.0 13.460791
8190.0 13.465241
8200.0 13.474720
8210.0 13.487148
8220.0 13.503548
8230.0 13.515385
8240.0 13.532962
8250.0 13.543529
8260.0 13.547738
8270.0 13.559044
8280.0 13.572718
8290.0 13.571096
8300.0 13.571086
8310.0 13.563897
8320.0 13.567579
8330.0 13.561334
8340.0 13.565453
8350.0 13.572343
8360.0 13.579759
8370.0 13.571814
8380.0 13.557231
8390.0 13.545446
8400.0 13.527237
8410.0 13.520746
8420.0 13.510659
8430.0 13.504735
8440.0 13.502372
8450.0 13.496966
8460.0 13.480457
8470.0 13.466949
8480.0 13.451412
8490.0 13.438357
8500.0 13.434436
8510.0 13.428968
8520.0 13.417640
8530.0 13.399940
8540.0 13.388029
8550.0 13.372727
8560.0 13.366218
8570.0 13.352174
8580.0 13.339929
8590.0 13.327420
8600.0 13.322939
8610.0 13.310858
8620.0 13.293128
8630.0 13.279407
8640.0 13.269118
8650.0 13.266205
8660.0 13.281452
8670.0 13.289424
8680.0 13.293482
8690.0 13.288677
8700.0 13.299444
8710.0 13.310654
8720.0 13.313812
8730.0 13.333581
8740.0 13.350106
8750.0 13.354803
8760.0 13.363188
8770.0 13.361978
8780.0 13.365123
8790.0 13.380974
8800.0 13.393272
8810.0 13.420360
8820.0 13.429749
8830.0 13.445128
8840.0 13.455616
8850.0 13.480467
8860.0 13.494684
8870.0 13.510171
8880.0 13.520680
8890.0 13.533777
8900.0 13.549596
8910.0 13.550928
8920.0 13.566096
8930.0 13.589807
8940.0 13.610807
8950.0 13.632428
8960.0 13.666586
8970.0 13.690961
8980.0 13.711671
8990.0 13.727912
9000.0 13.741830
9010.0 13.765653
9020.0 13.776852
9030.0 13.788434
9040.0 13.789174
9050.0 13.781644
9060.0 13.780940
9070.0 13.791253
9080.0 13.804020
9090.0 13.809923
9100.0 13.826846
9110.0 13.836099
9120.0 13.833588
9130.0 13.826546
9140.0 13.825688
9150.0 13.826050
9160.0 13.821523
9170.0 13.813091
9180.0 13.807237
9190.0 13.791074
9200.0 13.784912
9210.0 13.775146
9220.0 13.762973
9230.0 13.761003
9240.0 13.754393
9250.0 13.756554
9260.0 13.756838
9270.0 13.753724
9280.0 13.748198
9290.0 13.738822
9300.0 13.731682
9310.0 13.716921
9320.0 13.704663
9330.0 13.696000
9340.0 13.677981
9350.0 13.660121
9360.0 13.649844
9370.0 13.639695
9380.0 13.634418
9390.0 13.619388
9400.0 13.614549
9410.0 13.606039
9420.0 13.594976
9430.0 13.587572
9440.0 13.576433
9450.0 13.563171
9460.0 13.549005
9470.0 13.537872
9480.0 13.535980
9490.0 13.532868
9500.0 13.530876
9510.0 13.522986
9520.0 13.513315
9530.0 13.505539
9540.0 13.494494
9550.0 13.475328
9560.0 13.470172
9570.0 13.468305
9580.0 13.463640
9590.0 13.461127
9600.0 13.452339
9610.0 13.454772
9620.0 13.455783
9630.0 13.465232
9640.0 13.476540
9650.0 13.482508
9660.0 13.494461
9670.0 13.515216
9680.0 13.534661
9690.0 13.555799
9700.0 13.572986
9710.0 13.581168
9720.0 13.584049
9730.0 13.586847
9740.0 13.599283
9750.0 13.607235
9760.0 13.614277
9770.0 13.619442
9780.0 13.611295
9790.0 13.604689
9800.0 13.595502
9810.0 13.585415
9820.0 13.581664
9830.0 13.568469
9840.0 13.558477
9850.0 13.550608
9860.0 13.539502
9870.0 13.533292
9880.0 13.522426
9890.0 13.506092
9900.0 13.495486
9910.0 13.484619
9920.0 13.479201
9930.0 13.464547
9940.0 13.453159
9950.0 13.440819
9960.0 13.438225
9970.0 13.427174
9980.0 13.419493
9990.0 13.408303
10000.0 13.399069
10010.0 13.397949
10020.0 13.393543
10030.0 13.394609
10040.0 13.383120
10050.0 13.376314
10060.0 13.368011
10070.0 13.357966
10080.0 13.351612
10090.0 13.336430
10100.0 13.342333
10110.0 13.340018
10120.0 13.336800
10130.0 13.328013
10140.0 13.320330
10150.0 13.314022
10160.0 13.308477
10170.0 13.301391
10180.0 13.287809
10190.0 13.281395
10200.0 13.270435
10210.0 13.271343
10220.0 13.264326
10230.0 13.258827
10240.0 13.249858
10250.0 13.243614
10260.0 13.233906
10270.0 13.223721
10280.0 13.215434
10290.0 13.212243
10300.0 13.210941
10310.0 13.202167
10320.0 13.194629
10330.0 13.185205
10340.0 13.170606
10350.0 13.166835
10360.0 13.171619
10370.0 13.176686
10380.0 13.173776
10390.0 13.176019
10400.0 13.181211
10410.0 13.178798
10420.0 13.175786
10430.0 13.168836
10440.0 13.165584
10450.0 13.167848
10460.0 13.166871
10470.0 13.158959
10480.0 13.157539
10490.0 13.150222
10500.0 13.145145
10510.0 13.137846
10520.0 13.128789
10530.0 13.119379
10540.0 13.108929
10550.0 13.104227
10560.0 13.094962
10570.0 13.088139
10580.0 13.081743
10590.0 13.074192
10600.0 13.066796
10610.0 13.058377
10620.0 13.053786
10630.0 13.054269
10640.0 13.053606
10650.0 13.048410
10660.0 13.039766
10670.0 13.029678
10680.0 13.023078
10690.0 13.022874
10700.0 13.020686
10710.0 13.017582
10720.0 13.010438
10730.0 13.004560
10740.0 12.991501
10750.0 12.976613
10760.0 12.967957
10770.0 12.960715
10780.0 12.951474
10790.0 12.944641
10800.0 12.938934
10810.0 12.927614
10820.0 12.916552
10830.0 12.903457
10840.0 12.898975
10850.0 12.894515
10860.0 12.887420
10870.0 12.880383
10880.0 12.869737
10890.0 12.863325
10900.0 12.847944
10910.0 12.843517
10920.0 12.832110
10930.0 12.827770
10940.0 12.812366
10950.0 12.810481
10960.0 12.802755
10970.0 12.788997
10980.0 12.782600
10990.0 12.772963
11000.0 12.760689
11010.0 12.746410
11020.0 12.739197
11030.0 12.744507
11040.0 12.741081
11050.0 12.757103
11060.0 12.772777
11070.0 12.782433
11080.0 12.792517
11090.0 12.810522
11100.0 12.823854
11110.0 12.822883
11120.0 12.814999
11130.0 12.804632
11140.0 12.791225
11150.0 12.784576
11160.0 12.779748
11170.0 12.773451
11180.0 12.766645
11190.0 12.756612
11200.0 12.744239
11210.0 12.735677
11220.0 12.730119
11230.0 12.721775
11240.0 12.715853
11250.0 12.711797
11260.0 12.706968
11270.0 12.696053
11280.0 12.691566
11290.0 12.678683
11300.0 12.677753
11310.0 12.682068
11320.0 12.689530
11330.0 12.688103
11340.0 12.688940
11350.0 12.685011
11360.0 12.681432
11370.0 12.681902
11380.0 12.674971
11390.0 12.676058
11400.0 12.681389
11410.0 12.691585
11420.0 12.697948
11430.0 12.701193
11440.0 12.701683
11450.0 12.706397
11460.0 12.708770
11470.0 12.704825
11480.0 12.701833
11490.0 12.695663
11500.0 12.685471
11510.0 12.681984
11520.0 12.683196
11530.0 12.687333
11540.0 12.691868
11550.0 12.691442
11560.0 12.686404
11570.0 12.681804
11580.0 12.677940
11590.0 12.682627
11600.0 12.689062
11610.0 12.696754
11620.0 12.702345
11630.0 12.705432
11640.0 12.703512
11650.0 12.703283
11660.0 12.701061
11670.0 12.694576
11680.0 12.690065
11690.0 12.687806
11700.0 12.682678
11710.0 12.676889
11720.0 12.669221
11730.0 12.663804
11740.0 12.653317
11750.0 12.644846
11760.0 12.638311
11770.0 12.627718
11780.0 12.614476
11790.0 12.609009
11800.0 12.601957
11810.0 12.594196
11820.0 12.584256
11830.0 12.575464
11840.0 12.564244
11850.0 12.564581
11860.0 12.562695
11870.0 12.556194
11880.0 12.552186
11890.0 12.546467
11900.0 12.535510
11910.0 12.531669
11920.0 12.521272
11930.0 12.520793
11940.0 12.511047
11950.0 12.498231
11960.0 12.490894
11970.0 12.496261
11980.0 12.497633
11990.0 12.498699
12000.0 12.489417
12010.0 12.493440
12020.0 12.486172
12030.0 12.492306
12040.0 12.501213
12050.0 12.505489
12060.0 12.508504
12070.0 12.510821
12080.0 12.511589
12090.0 12.511251
12100.0 12.516022
12110.0 12.521942
12120.0 12.526685
12130.0 12.525667
12140.0 12.522874
12150.0 12.518068
12160.0 12.516275
12170.0 12.508195
12180.0 12.504579
12190.0 12.499007
12200.0 12.496260
12210.0 12.483149
12220.0 12.474738
12230.0 12.466892
12240.0 12.457988
12250.0 12.451187
12260.0 12.449535
12270.0 12.446693
12280.0 12.443014
12290.0 12.449161
12300.0 12.454989
12310.0 12.458866
12320.0 12.462229
12330.0 12.462074
12340.0 12.461749
12350.0 12.457319
12360.0 12.451082
12370.0 12.444966
12380.0 12.438188
12390.0 12.434798
12400.0 12.425860
12410.0 12.417078
12420.0 12.406164
12430.0 12.400466
12440.0 12.385294
12450.0 12.378596
12460.0 12.371169
12470.0 12.361394
12480.0 12.353883
12490.0 12.354171
12500.0 12.351913
12510.0 12.353191
12520.0 12.358859
12530.0 12.363007
12540.0 12.365997
12550.0 12.369505
12560.0 12.370516
12570.0 12.362805
12580.0 12.361474
12590.0 12.359892
12600.0 12.352897
12610.0 12.344797
12620.0 12.338795
12630.0 12.334593
12640.0 12.327298
12650.0 12.319143
12660.0 12.310716
12670.0 12.299419
12680.0 12.299438
12690.0 12.293255
12700.0 12.282308
12710.0 12.283229
12720.0 12.285568
12730.0 12.296855
12740.0 12.298212
12750.0 12.300499
12760.0 12.298513
12770.0 12.301027
12780.0 12.302131
12790.0 12.306110
12800.0 12.309129
12810.0 12.310222
12820.0 12.303017
12830.0 12.304541
12840.0 12.298329
12850.0 12.291216
12860.0 12.282940
12870.0 12.275430
12880.0 12.271927
12890.0 12.267350
12900.0 12.264610
12910.0 12.257421
12920.0 12.252976
12930.0 12.247221
12940.0 12.244215
12950.0 12.241764
12960.0 12.236347
12970.0 12.238763
12980.0 12.232732
12990.0 12.225199
13000.0 12.220222
13010.0 12.215619
13020.0 12.209263
13030.0 12.202918
13040.0 12.199559
13050.0 12.188421
13060.0 12.181287
13070.0 12.176836
13080.0 12.175609
13090.0 12.170869
13100.0 12.168460
13110.0 12.165381
13120.0 12.163726
13130.0 12.161418
13140.0 12.163626
13150.0 12.166577
13160.0 12.168041
13170.0 12.170392
13180.0 12.166131
13190.0 12.170547
13200.0 12.171074
13210.0 12.168050
13220.0 12.169366
13230.0 12.173129
13240.0 12.173746
13250.0 12.176749
13260.0 12.186823
13270.0 12.195523
13280.0 12.201782
13290.0 12.201710
13300.0 12.201970
13310.0 12.203382
13320.0 12.203200
13330.0 12.201395
13340.0 12.205102
13350.0 12.207277
13360.0 12.204689
13370.0 12.207940
13380.0 12.214869
13390.0 12.226801
13400.0 12.236944
13410.0 12.247471
13420.0 12.255494
13430.0 12.267275
13440.0 12.283634
13450.0 12.294423
13460.0 12.295685
13470.0 12.295459
13480.0 12.293473
13490.0 12.297951
13500.0 12.305396
13510.0 12.313573
13520.0 12.319287
13530.0 12.325318
13540.0 12.334984
13550.0 12.342838
13560.0 12.350272
13570.0 12.363012
13580.0 12.372924
13590.0 12.382526
13600.0 12.399497
13610.0 12.416423
13620.0 12.430313
13630.0 12.439867
13640.0 12.451061
13650.0 12.461753
13660.0 12.466946
13670.0 12.473118
13680.0 12.477128
13690.0 12.474310
13700.0 12.473817
13710.0 12.473151
13720.0 12.473481
13730.0 12.469521
13740.0 12.458714
13750.0 12.456095
13760.0 12.449646
13770.0 12.443353
13780.0 12.438883
13790.0 12.431472
13800.0 12.422116
13810.0 12.423546
13820.0 12.421685
13830.0 12.418096
13840.0 12.421924
13850.0 12.422297
13860.0 12.423071
13870.0 12.425191
13880.0 12.426682
13890.0 12.425977
13900.0 12.431500
13910.0 12.440916
13920.0 12.445918
13930.0 12.457750
13940.0 12.462791
13950.0 12.464219
13960.0 12.466654
13970.0 12.466609
13980.0 12.464240
13990.0 12.468965
14000.0 12.475362
14010.0 12.477921
14020.0 12.473674
14030.0 12.472703
14040.0 12.466640
14050.0 12.464433
14060.0 12.458517
14070.0 12.455613
14080.0 12.454068
14090.0 12.450137
14100.0 12.449590
14110.0 12.448027
14120.0 12.450371
14130.0 12.459571
14140.0 12.464794
14150.0 12.469308
14160.0 12.471419
14170.0 12.482502
14180.0 12.487528
14190.0 12.496455
14200.0 12.509968
14210.0 12.520590
14220.0 12.525156
14230.0 12.527753
14240.0 12.534170
14250.0 12.538217
14260.0 12.545589
14270.0 12.550805
14280.0 12.551888
14290.0 12.559253
14300.0 12.568314
14310.0 12.578307
14320.0 12.582443
14330.0 12.589574
14340.0 12.595634
14350.0 12.601996
14360.0 12.608138
14370.0 12.614991
14380.0 12.616659
14390.0 12.618432
14400.0 12.615669
14410.0 12.612618
14420.0 12.608420
14430.0 12.608851
14440.0 12.612464
14450.0 12.610993
14460.0 12.606228
14470.0 12.602502
14480.0 12.599454
14490.0 12.595790
14500.0 12.586962
14510.0 12.579517
14520.0 12.571762
14530.0 12.565786
14540.0 12.562120
14550.0 12.557130
14560.0 12.550529
14570.0 12.543655
14580.0 12.533401
14590.0 12.524029
14600.0 12.519560
14610.0 12.513934
14620.0 12.511060
14630.0 12.507770
14640.0 12.497788
14650.0 12.488611
14660.0 12.486923
14670.0 12.486583
14680.0 12.477283
14690.0 12.476158
14700.0 12.469789
14710.0 12.464678
14720.0 12.461540
14730.0 12.456476
14740.0 12.450279
14750.0 12.450725
14760.0 12.457470
14770.0 12.463656
14780.0 12.471728
14790.0 12.472616
14800.0 12.469680
14810.0 12.464783
14820.0 12.455641
14830.0 12.451989
14840.0 12.451309
14850.0 12.457331
14860.0 12.461678
14870.0 12.464000
14880.0 12.460224
14890.0 12.459052
14900.0 12.455758
14910.0 12.451931
14920.0 12.444526
14930.0 12.433911
14940.0 12.433085
14950.0 12.436904
14960.0 12.435400
14970.0 12.437337
14980.0 12.435897
14990.0 12.431705
15000.0 12.423761
15010.0 12.418805
15020.0 12.410495
15030.0 12.402250
15040.0 12.396696
15050.0 12.398325
15060.0 12.394802
15070.0 12.396460
15080.0 12.394624
15090.0 12.393635
15100.0 12.389163
15110.0 12.384638
15120.0 12.375101
15130.0 12.370109
15140.0 12.370205
15150.0 12.365734
15160.0 12.361189
15170.0 12.353138
15180.0 12.347555
15190.0 12.339731
15200.0 12.337749
15210.0 12.330581
15220.0 12.326109
15230.0 12.319827
15240.0 12.319020
15250.0 12.322202
15260.0 12.326358
15270.0 12.322556
15280.0 12.325928
15290.0 12.330630
15300.0 12.335013
15310.0 12.341900
15320.0 12.346244
15330.0 12.344327
15340.0 12.338913
15350.0 12.334963
15360.0 12.329966
15370.0 12.322109
15380.0 12.314331
15390.0 12.307799
15400.0 12.305277
15410.0 12.299745
15420.0 12.291608
15430.0 12.285701
15440.0 12.280785
15450.0 12.276325
15460.0 12.278798
15470.0 12.280251
15480.0 12.278580
15490.0 12.283596
15500.0 12.283943
15510.0 12.284886
15520.0 12.284685
15530.0 12.285161
15540.0 12.280034
15550.0 12.273569
15560.0 12.266018
15570.0 12.261677
15580.0 12.250481
15590.0 12.248607
15600.0 12.245519
15610.0 12.244215
15620.0 12.243034
15630.0 12.236468
15640.0 12.229215
15650.0 12.232768
15660.0 12.237063
15670.0 12.235672
15680.0 12.237310
15690.0 12.235929
15700.0 12.237317
15710.0 12.237463
15720.0 12.242907
15730.0 12.246247
15740.0 12.245620
15750.0 12.247161
15760.0 12.251428
15770.0 12.248858
15780.0 12.251385
15790.0 12.246484
15800.0 12.239908
15810.0 12.234838
15820.0 12.228207
15830.0 12.224540
15840.0 12.220636
15850.0 12.216094
15860.0 12.212321
15870.0 12.208589
15880.0 12.204351
15890.0 12.197550
15900.0 12.192287
15910.0 12.190103
15920.0 12.188145
15930.0 12.183656
15940.0 12.179166
15950.0 12.174501
15960.0 12.164409
15970.0 12.160229
15980.0 12.154596
15990.0 12.157793
16000.0 12.164955
16010.0 12.169072
16020.0 12.172685
16030.0 12.173993
16040.0 12.177706
16050.0 12.183515
16060.0 12.184865
16070.0 12.182669
16080.0 12.177985
16090.0 12.172295
16100.0 12.166194
16110.0 12.161548
16120.0 12.157430
16130.0 12.150555
16140.0 12.142933
16150.0 12.138054
16160.0 12.133671
16170.0 12.133833
16180.0 12.132373
16190.0 12.131898
16200.0 12.137212
16210.0 12.138414
16220.0 12.132867
16230.0 12.131769
16240.0 12.128516
16250.0 12.125342
16260.0 12.122118
16270.0 12.116584
16280.0 12.110845
16290.0 12.110705
16300.0 12.113198
16310.0 12.112480
16320.0 12.112827
16330.0 12.109300
16340.0 12.111183
16350.0 12.106251
16360.0 12.097343
16370.0 12.092908
16380.0 12.089013
16390.0 12.083070
16400.0 12.076608
16410.0 12.069980
16420.0 12.068308
16430.0 12.063466
16440.0 12.060474
16450.0 12.057190
16460.0 12.054231
16470.0 12.048266
16480.0 12.046367
16490.0 12.044084
16500.0 12.045562
16510.0 12.045957
16520.0 12.051841
16530.0 12.061082
16540.0 12.068994
16550.0 12.081422
16560.0 12.092736
16570.0 12.102563
16580.0 12.114588
16590.0 12.124331
16600.0 12.131360
16610.0 12.146014
16620.0 12.157758
16630.0 12.171355
16640.0 12.188113
16650.0 12.198539
16660.0 12.211972
16670.0 12.220883
16680.0 12.231038
16690.0 12.242765
16700.0 12.246083
16710.0 12.247081
16720.0 12.249355
16730.0 12.257757
16740.0 12.255850
16750.0 12.261980
16760.0 12.270162
16770.0 12.279203
16780.0 12.285848
16790.0 12.290032
16800.0 12.293026
16810.0 12.299301
16820.0 12.302012
16830.0 12.302770
16840.0 12.304011
16850.0 12.305111
16860.0 12.307642
16870.0 12.311643
16880.0 12.318342
16890.0 12.321939
16900.0 12.327381
16910.0 12.328218
16920.0 12.333241
16930.0 12.338850
16940.0 12.344221
16950.0 12.349930
16960.0 12.353583
16970.0 12.357895
16980.0 12.364272
16990.0 12.371798
17000.0 12.379457
17010.0 12.382339
17020.0 12.391336
17030.0 12.391636
17040.0 12.397934
17050.0 12.408024
17060.0 12.420515
17070.0 12.436103
17080.0 12.447705
17090.0 12.455763
17100.0 12.466487
17110.0 12.476921
17120.0 12.485924
17130.0 12.495715
17140.0 12.503713
17150.0 12.509146
17160.0 12.515297
17170.0 12.514248
17180.0 12.517996
17190.0 12.522428
17200.0 12.528896
17210.0 12.529507
17220.0 12.529965
17230.0 12.534495
17240.0 12.540638
17250.0 12.546808
17260.0 12.552556
17270.0 12.557270
17280.0 12.567504
17290.0 12.574343
17300.0 12.581570
17310.0 12.592529
17320.0 12.594720
17330.0 12.594975
17340.0 12.601888
17350.0 12.610111
17360.0 12.616981
17370.0 12.620350
17380.0 12.621531
17390.0 12.625213
17400.0 12.632224
17410.0 12.644779
17420.0 12.653179
17430.0 12.660539
17440.0 12.669719
17450.0 12.681048
17460.0 12.686663
17470.0 12.693376
17480.0 12.701700
17490.0 12.710160
17500.0 12.713587
17510.0 12.721361
17520.0 12.724637
17530.0 12.734855
17540.0 12.735986
17550.0 12.744437
17560.0 12.756437
17570.0 12.767552
17580.0 12.780797
17590.0 12.791155
17600.0 12.803760
17610.0 12.814903
17620.0 12.823952
17630.0 12.837535
17640.0 12.850743
17650.0 12.864359
17660.0 12.876311
17670.0 12.884664
17680.0 12.896208
17690.0 12.905308
17700.0 12.923608
17710.0 12.940152
17720.0 12.953455
17730.0 12.965188
17740.0 12.970596
17750.0 12.981359
17760.0 12.995474
17770.0 13.006439
17780.0 13.022940
17790.0 13.036371
17800.0 13.049056
17810.0 13.066192
17820.0 13.074538
17830.0 13.086667
17840.0 13.095545
17850.0 13.107670
17860.0 13.116094
17870.0 13.133057
17880.0 13.144090
17890.0 13.148910
17900.0 13.158454
17910.0 13.160289
17920.0 13.157582
17930.0 13.151465
17940.0 13.150995
17950.0 13.151218
17960.0 13.150944
17970.0 13.150453
17980.0 13.158837
17990.0 13.159507
18000.0 13.165242
18010.0 13.172691
18020.0 13.176885
18030.0 13.176112
18040.0 13.183885
18050.0 13.193656
18060.0 13.202848
18070.0 13.209588
18080.0 13.217431
18090.0 13.223015
18100.0 13.222563
18110.0 13.225748
18120.0 13.229864
18130.0 13.228438
18140.0 13.230219
18150.0 13.230646
18160.0 13.231206
18170.0 13.234506
18180.0 13.234230
18190.0 13.228972
18200.0 13.226272
18210.0 13.221968
18220.0 13.215352
18230.0 13.208888
18240.0 13.203828
18250.0 13.198315
18260.0 13.193773
18270.0 13.191692
18280.0 13.186106
18290.0 13.179986
18300.0 13.179295
18310.0 13.175381
18320.0 13.175671
18330.0 13.177373
18340.0 13.180830
18350.0 13.182292
18360.0 13.183271
18370.0 13.182018
18380.0 13.188132
18390.0 13.190167
18400.0 13.192568
18410.0 13.200714
18420.0 13.208186
18430.0 13.224294
18440.0 13.236184
18450.0 13.243655
18460.0 13.251095
18470.0 13.260091
18480.0 13.268637
18490.0 13.275018
18500.0 13.286329
18510.0 13.294307
18520.0 13.295526
18530.0 13.296656
18540.0 13.301112
18550.0 13.301121
18560.0 13.312235
18570.0 13.315169
18580.0 13.322461
18590.0 13.327281
18600.0 13.331830
18610.0 13.345802
18620.0 13.350136
18630.0 13.357741
18640.0 13.365644
18650.0 13.368839
18660.0 13.369606
18670.0 13.376825
18680.0 13.376294
18690.0 13.381792
18700.0 13.381766
18710.0 13.380327
18720.0 13.379955
18730.0 13.379993
18740.0 13.375095
18750.0 13.369432
18760.0 13.362262
18770.0 13.358068
18780.0 13.352320
18790.0 13.348297
18800.0 13.346165
18810.0 13.335530
18820.0 13.330414
18830.0 13.324139
18840.0 13.317925
18850.0 13.313280
18860.0 13.308218
18870.0 13.311203
18880.0 13.315200
18890.0 13.319354
18900.0 13.329280
18910.0 13.339441
18920.0 13.347238
18930.0 13.358684
18940.0 13.366226
18950.0 13.371947
18960.0 13.379993
18970.0 13.387927
18980.0 13.392198
18990.0 13.398420
19000.0 13.409719
19010.0 13.419299
19020.0 13.431187
19030.0 13.441858
19040.0 13.453266
19050.0 13.464948
19060.0 13.473276
19070.0 13.481528
19080.0 13.491536
19090.0 13.500591
19100.0 13.513251
19110.0 13.527342
19120.0 13.538555
19130.0 13.544292
19140.0 13.549787
19150.0 13.552415
19160.0 13.561561
19170.0 13.568239
19180.0 13.568813
19190.0 13.575341
19200.0 13.582133
19210.0 13.588574
19220.0 13.594542
19230.0 13.598044
19240.0 13.603770
19250.0 13.606126
19260.0 13.601850
19270.0 13.596289
19280.0 13.591627
19290.0 13.586709
19300.0 13.584593
19310.0 13.577808
19320.0 13.575802
19330.0 13.569508
19340.0 13.566747
19350.0 13.563995
19360.0 13.558768
19370.0 13.559400
19380.0 13.557519
19390.0 13.552749
19400.0 13.546986
19410.0 13.545197
19420.0 13.538959
19430.0 13.534648
19440.0 13.528627
19450.0 13.522329
19460.0 13.514751
19470.0 13.508706
19480.0 13.507124
19490.0 13.501150
19500.0 13.496597
19510.0 13.492533
19520.0 13.485929
19530.0 13.482926
19540.0 13.479538
19550.0 13.478507
19560.0 13.477127
19570.0 13.476582
19580.0 13.473611
19590.0 13.466365
19600.0 13.460242
19610.0 13.461612
19620.0 13.460170
19630.0 13.460893
19640.0 13.460981
19650.0 13.460060
19660.0 13.462940
19670.0 13.457334
19680.0 13.451877
19690.0 13.451939
19700.0 13.448575
19710.0 13.438843
19720.0 13.433269
19730.0 13.434496
19740.0 13.431101
19750.0 13.427048
19760.0 13.419268
19770.0 13.415105
19780.0 13.412856
19790.0 13.405915
19800.0 13.399373
19810.0 13.397480
19820.0 13.396904
19830.0 13.388293
19840.0 13.384200
19850.0 13.381517
19860.0 13.379562
19870.0 13.371637
19880.0 13.367171
19890.0 13.359234
19900.0 13.356628
19910.0 13.351106
19920.0 13.345105
19930.0 13.342065
19940.0 13.339394
19950.0 13.333638
19960.0 13.328117
19970.0 13.322917
19980.0 13.316541
19990.0 13.312017
20000.0 13.308828
20010.0 13.301857
20020.0 13.300452
20030.0 13.293614
20040.0 13.291281
20050.0 13.289769
20060.0 13.288075
20070.0 13.290985
20080.0 13.292367
20090.0 13.292550
20100.0 13.287476
20110.0 13.286233
20120.0 13.289526
20130.0 13.293104
20140.0 13.296730
20150.0 13.296945
20160.0 13.295503
20170.0 13.294215
20180.0 13.299653
20190.0 13.300789
20200.0 13.297361
20210.0 13.297768
20220.0 13.298355
20230.0 13.302505
20240.0 13.306817
20250.0 13.311907
20260.0 13.322654
20270.0 13.331071
20280.0 13.337737
20290.0 13.349893
20300.0 13.365748
20310.0 13.378073
20320.0 13.388422
20330.0 13.400291
20340.0 13.405607
20350.0 13.410349
20360.0 13.412328
20370.0 13.410811
20380.0 13.409089
20390.0 13.404966
20400.0 13.409424
20410.0 13.413717
20420.0 13.412418
20430.0 13.412736
20440.0 13.410636
20450.0 13.415204
20460.0 13.417352
20470.0 13.416628
20480.0 13.420951
20490.0 13.422322
20500.0 13.421554
20510.0 13.418478
20520.0 13.417707
20530.0 13.416233
20540.0 13.412135
20550.0 13.407453
20560.0 13.404013
20570.0 13.396565
20580.0 13.393665
20590.0 13.389858
20600.0 13.387076
20610.0 13.383769
20620.0 13.382018
20630.0 13.377553
20640.0 13.371707
20650.0 13.368376
20660.0 13.364935
20670.0 13.361473
20680.0 13.355758
20690.0 13.352541
20700.0 13.348685
20710.0 13.344988
20720.0 13.345934
20730.0 13.348763
20740.0 13.345741
20750.0 13.347605
20760.0 13.350223
20770.0 13.343224
20780.0 13.343301
20790.0 13.344988
20800.0 13.344280
20810.0 13.343487
20820.0 13.338886
20830.0 13.340647
20840.0 13.337428
20850.0 13.335042
20860.0 13.332539
20870.0 13.329415
20880.0 13.324344
20890.0 13.326398
20900.0 13.325329
20910.0 13.327418
20920.0 13.326472
20930.0 13.326082
20940.0 13.323622
20950.0 13.317400
20960.0 13.317329
20970.0 13.311803
20980.0 13.308991
20990.0 13.306618
21000.0 13.300744
21010.0 13.299121
21020.0 13.294759
21030.0 13.289892
21040.0 13.287656
21050.0 13.287248
21060.0 13.289451
21070.0 13.291467
21080.0 13.293246
21090.0 13.296347
21100.0 13.295927
21110.0 13.293452
21120.0 13.287366
21130.0 13.285069
21140.0 13.278654
21150.0 13.277340
21160.0 13.272725
21170.0 13.270406
21180.0 13.268102
21190.0 13.266985
21200.0 13.265473
21210.0 13.257730
21220.0 13.257303
21230.0 13.253666
21240.0 13.247783
21250.0 13.241543
21260.0 13.233889
21270.0 13.231804
21280.0 13.230997
21290.0 13.227812
21300.0 13.225848
21310.0 13.224420
21320.0 13.222446
21330.0 13.216796
21340.0 13.215859
21350.0 13.211715
21360.0 13.208521
21370.0 13.208994
21380.0 13.206158
21390.0 13.203203
21400.0 13.198841
21410.0 13.194361
21420.0 13.192650
21430.0 13.190942
21440.0 13.192763
21450.0 13.194308
21460.0 13.194467
21470.0 13.185285
21480.0 13.184236
21490.0 13.184678
21500.0 13.182828
21510.0 13.180271
21520.0 13.178639
21530.0 13.176695
21540.0 13.176486
21550.0 13.174958
21560.0 13.173204
21570.0 13.166777
21580.0 13.162859
21590.0 13.161454
21600.0 13.157249
21610.0 13.152790
21620.0 13.147232
21630.0 13.147328
21640.0 13.144806
21650.0 13.142515
21660.0 13.137124
21670.0 13.133111
21680.0 13.129085
21690.0 13.124257
21700.0 13.118297
21710.0 13.115270
21720.0 13.110184
21730.0 13.110373
21740.0 13.110183
21750.0 13.110061
21760.0 13.114653
21770.0 13.116176
21780.0 13.117595
21790.0 13.118182
21800.0 13.119667
21810.0 13.119748
21820.0 13.120902
21830.0 13.124489
21840.0 13.131960
21850.0 13.138107
21860.0 13.143899
21870.0 13.150053
21880.0 13.151132
21890.0 13.151448
21900.0 13.151312
21910.0 13.152160
21920.0 13.151514
21930.0 13.153052
21940.0 13.151780
21950.0 13.153257
21960.0 13.157179
21970.0 13.160313
21980.0 13.166668
21990.0 13.171816
22000.0 13.174741
22010.0 13.181248
22020.0 13.188621
22030.0 13.194716
22040.0 13.199829
22050.0 13.202993
22060.0 13.204037
22070.0 13.205573
22080.0 13.206953
22090.0 13.210887
22100.0 13.217019
22110.0 13.224902
22120.0 13.231812
22130.0 13.235042
22140.0 13.237645
22150.0 13.239029
22160.0 13.235232
22170.0 13.229850
22180.0 13.224644
22190.0 13.216912
22200.0 13.210380
22210.0 13.205805
22220.0 13.203128
22230.0 13.198845
22240.0 13.194613
22250.0 13.189237
22260.0 13.189476
22270.0 13.184988
22280.0 13.185587
22290.0 13.183160
22300.0 13.178134
22310.0 13.174686
22320.0 13.170107
22330.0 13.170045
22340.0 13.172139
22350.0 13.169274
22360.0 13.165889
22370.0 13.168740
22380.0 13.171562
22390.0 13.172556
22400.0 13.169423
22410.0 13.166943
22420.0 13.162394
22430.0 13.160397
22440.0 13.157927
22450.0 13.153325
22460.0 13.153869
22470.0 13.151250
22480.0 13.148670
22490.0 13.151041
22500.0 13.155307
22510.0 13.153484
22520.0 13.157883
22530.0 13.161408
22540.0 13.164778
22550.0 13.163057
22560.0 13.165286
22570.0 13.171075
22580.0 13.176331
22590.0 13.177488
22600.0 13.180778
22610.0 13.182347
22620.0 13.187217
22630.0 13.191397
22640.0 13.190643
22650.0 13.187979
22660.0 13.180938
22670.0 13.177969
22680.0 13.176712
22690.0 13.175791
22700.0 13.175431
22710.0 13.171892
22720.0 13.174310
22730.0 13.177382
22740.0 13.175180
22750.0 13.175511
22760.0 13.172832
22770.0 13.165659
22780.0 13.165960
22790.0 13.167854
22800.0 13.165570
22810.0 13.159868
22820.0 13.157895
22830.0 13.154919
22840.0 13.152014
22850.0 13.147711
22860.0 13.144236
22870.0 13.138172
22880.0 13.135508
22890.0 13.132629
22900.0 13.129835
22910.0 13.126132
22920.0 13.124592
22930.0 13.119348
22940.0 13.118395
22950.0 13.111846
22960.0 13.107634
22970.0 13.103025
22980.0 13.098387
22990.0 13.098042
23000.0 13.094524
23010.0 13.094716
23020.0 13.091805
23030.0 13.088314
23040.0 13.085396
23050.0 13.081294
23060.0 13.074723
23070.0 13.068666
23080.0 13.064905
23090.0 13.061335
23100.0 13.056463
23110.0 13.053369
23120.0 13.052315
23130.0 13.046875
23140.0 13.043697
23150.0 13.041412
23160.0 13.037531
23170.0 13.030976
23180.0 13.026412
23190.0 13.025543
23200.0 13.026090
23210.0 13.025087
23220.0 13.022400
23230.0 13.018098
23240.0 13.013128
23250.0 13.006507
23260.0 13.003815
23270.0 13.000839
23280.0 13.002775
23290.0 13.004465
23300.0 13.007056
23310.0 13.013558
23320.0 13.018487
23330.0 13.021990
23340.0 13.024113
23350.0 13.025216
23360.0 13.025108
23370.0 13.026122
23380.0 13.029014
23390.0 13.033687
23400.0 13.031341
23410.0 13.025462
23420.0 13.020598
23430.0 13.016781
23440.0 13.014873
23450.0 13.011313
23460.0 13.008006
23470.0 13.001193
23480.0 12.995011
23490.0 12.994906
23500.0 12.991779
23510.0 12.988128
23520.0 12.985901
23530.0 12.982239
23540.0 12.977211
23550.0 12.971755
23560.0 12.971204
23570.0 12.968738
23580.0 12.966141
23590.0 12.961748
23600.0 12.956327
23610.0 12.953289
23620.0 12.949347
23630.0 12.947765
23640.0 12.943528
23650.0 12.937229
23660.0 12.934045
23670.0 12.929653
23680.0 12.926127
23690.0 12.923325
23700.0 12.920176
23710.0 12.918911
23720.0 12.915650
23730.0 12.912499
23740.0 12.905109
23750.0 12.900905
23760.0 12.899865
23770.0 12.899113
23780.0 12.898311
23790.0 12.896650
23800.0 12.894623
23810.0 12.893452
23820.0 12.891727
23830.0 12.890278
23840.0 12.890101
23850.0 12.886472
23860.0 12.884409
23870.0 12.881882
23880.0 12.877044
23890.0 12.872649
23900.0 12.866595
23910.0 12.861383
23920.0 12.858988
23930.0 12.856941
23940.0 12.852849
23950.0 12.851427
23960.0 12.848568
23970.0 12.842506
23980.0 12.839824
23990.0 12.834597
24000.0 12.832648
24010.0 12.828046
24020.0 12.822140
24030.0 12.819047
24040.0 12.814081
24050.0 12.810050
24060.0 12.808510
24070.0 12.801358
24080.0 12.798251
24090.0 12.798922
24100.0 12.797882
24110.0 12.794817
24120.0 12.791609
24130.0 12.790154
24140.0 12.791966
24150.0 12.790857
24160.0 12.788266
24170.0 12.783573
24180.0 12.785120
24190.0 12.785224
24200.0 12.783378
24210.0 12.781611
24220.0 12.782429
24230.0 12.782252
24240.0 12.784838
24250.0 12.789302
24260.0 12.793260
24270.0 12.798650
24280.0 12.804679
24290.0 12.808516
24300.0 12.809136
24310.0 12.814294
24320.0 12.817419
24330.0 12.818417
24340.0 12.819939
24350.0 12.822537
24360.0 12.827007
24370.0 12.832360
24380.0 12.837109
24390.0 12.842222
24400.0 12.849803
24410.0 12.855349
24420.0 12.864702
24430.0 12.872289
24440.0 12.879803
24450.0 12.885611
24460.0 12.886513
24470.0 12.886608
24480.0 12.889152
24490.0 12.892106
24500.0 12.898471
24510.0 12.901708
24520.0 12.909382
24530.0 12.914403
24540.0 12.923878
24550.0 12.928684
24560.0 12.930431
24570.0 12.933845
24580.0 12.939018
24590.0 12.942831
24600.0 12.942553
24610.0 12.947246
24620.0 12.952206
24630.0 12.952768
24640.0 12.960171
24650.0 12.964170
24660.0 12.972657
24670.0 12.978548
24680.0 12.984071
24690.0 12.989522
24700.0 12.995499
24710.0 13.004007
24720.0 13.014782
24730.0 13.023362
24740.0 13.030393
24750.0 13.037907
24760.0 13.045643
24770.0 13.054374
24780.0 13.061262
24790.0 13.067100
24800.0 13.072118
24810.0 13.077729
24820.0 13.083687
24830.0 13.088298
24840.0 13.086690
24850.0 13.092251
24860.0 13.097300
24870.0 13.097499
24880.0 13.106399
24890.0 13.115198
24900.0 13.121373
24910.0 13.121735
24920.0 13.121738
24930.0 13.121881
24940.0 13.124427
24950.0 13.126898
24960.0 13.132149
24970.0 13.136048
24980.0 13.144071
24990.0 13.153498
25000.0 13.158890
25010.0 13.164458
25020.0 13.167804
25030.0 13.165320
25040.0 13.161886
25050.0 13.157659
25060.0 13.154821
25070.0 13.148318
25080.0 13.142193
25090.0 13.138252
25100.0 13.135788
25110.0 13.130108
25120.0 13.125848
25130.0 13.122669
25140.0 13.119143
25150.0 13.113630
25160.0 13.110123
25170.0 13.107234
25180.0 13.100489
25190.0 13.097211
25200.0 13.093998
25210.0 13.090450
25220.0 13.087070
25230.0 13.082570
25240.0 13.078153
25250.0 13.075890
25260.0 13.071078
25270.0 13.068993
25280.0 13.062937
25290.0 13.058286
25300.0 13.057465
25310.0 13.054967
25320.0 13.051506
25330.0 13.049728
25340.0 13.045352
25350.0 13.043758
25360.0 13.039781
25370.0 13.037066
25380.0 13.033574
25390.0 13.026627
25400.0 13.027994
25410.0 13.027714
25420.0 13.027528
25430.0 13.027099
25440.0 13.026886
25450.0 13.030752
25460.0 13.037622
25470.0 13.040424
25480.0 13.044093
25490.0 13.047016
25500.0 13.050204
25510.0 13.057346
25520.0 13.061937
25530.0 13.068323
25540.0 13.072879
25550.0 13.079103
25560.0 13.083884
25570.0 13.085197
25580.0 13.090298
25590.0 13.090827
25600.0 13.095058
25610.0 13.095361
25620.0 13.098654
25630.0 13.102588
25640.0 13.103145
25650.0 13.108348
25660.0 13.113930
25670.0 13.119948
25680.0 13.126070
25690.0 13.131863
25700.0 13.137763
25710.0 13.146389
25720.0 13.157184
25730.0 13.164905
25740.0 13.171199
25750.0 13.178128
25760.0 13.187141
25770.0 13.191992
25780.0 13.197118
25790.0 13.202059
25800.0 13.207606
25810.0 13.212022
25820.0 13.217527
25830.0 13.222403
25840.0 13.225529
25850.0 13.227790
25860.0 13.227808
25870.0 13.227981
25880.0 13.231393
25890.0 13.238724
25900.0 13.242557
25910.0 13.250381
25920.0 13.258990
25930.0 13.272029
25940.0 13.280456
25950.0 13.285794
25960.0 13.294175
25970.0 13.300107
25980.0 13.304358
25990.0 13.308869
26000.0 13.311589
26010.0 13.315732
26020.0 13.317953
26030.0 13.318756
26040.0 13.322304
26050.0 13.332011
26060.0 13.337432
26070.0 13.344609
26080.0 13.352292
26090.0 13.358758
26100.0 13.364806
26110.0 13.368960
26120.0 13.374263
26130.0 13.380640
26140.0 13.387732
26150.0 13.391741
26160.0 13.393217
26170.0 13.397296
26180.0 13.406179
26190.0 13.417727
26200.0 13.426887
26210.0 13.431998
26220.0 13.440011
26230.0 13.446135
26240.0 13.452140
26250.0 13.457485
26260.0 13.466331
26270.0 13.474536
26280.0 13.479667
26290.0 13.480046
26300.0 13.481262
26310.0 13.485493
26320.0 13.488882
26330.0 13.491081
26340.0 13.496749
26350.0 13.494475
26360.0 13.493226
26370.0 13.496326
26380.0 13.495343
26390.0 13.492794
26400.0 13.492032
26410.0 13.490881
26420.0 13.490048
26430.0 13.488595
26440.0 13.485913
26450.0 13.483167
26460.0 13.480836
26470.0 13.481779
26480.0 13.479231
26490.0 13.475638
26500.0 13.469594
26510.0 13.466070
26520.0 13.459043
26530.0 13.458286
26540.0 13.458158
26550.0 13.460632
26560.0 13.454733
26570.0 13.454621
26580.0 13.453723
26590.0 13.452520
26600.0 13.448517
26610.0 13.440635
26620.0 13.435031
26630.0 13.433216
26640.0 13.428990
26650.0 13.424553
26660.0 13.420786
26670.0 13.416935
26680.0 13.413959
26690.0 13.409565
26700.0 13.405277
26710.0 13.404914
26720.0 13.404336
26730.0 13.401986
26740.0 13.401737
26750.0 13.401885
26760.0 13.402590
26770.0 13.406159
26780.0 13.411668
26790.0 13.411543
26800.0 13.412748
26810.0 13.414388
26820.0 13.414224
26830.0 13.412496
26840.0 13.411826
26850.0 13.412213
26860.0 13.412931
26870.0 13.413051
26880.0 13.415423
26890.0 13.415125
26900.0 13.410794
26910.0 13.405353
26920.0 13.403357
26930.0 13.397469
26940.0 13.394360
26950.0 13.393531
26960.0 13.388219
26970.0 13.387193
26980.0 13.387544
26990.0 13.384052
27000.0 13.378138
27010.0 13.374346
27020.0 13.371793
27030.0 13.367013
27040.0 13.364708
27050.0 13.365042
27060.0 13.364791
27070.0 13.363293
27080.0 13.359643
27090.0 13.357220
27100.0 13.356695
27110.0 13.355257
27120.0 13.350543
27130.0 13.345837
27140.0 13.343113
27150.0 13.340594
27160.0 13.336330
27170.0 13.331419
27180.0 13.327336
27190.0 13.323651
27200.0 13.321636
27210.0 13.317789
27220.0 13.315928
27230.0 13.314238
27240.0 13.311190
27250.0 13.306326
27260.0 13.305183
27270.0 13.302234
27280.0 13.299602
27290.0 13.294751
27300.0 13.289885
27310.0 13.285871
27320.0 13.286333
27330.0 13.286374
27340.0 13.285436
27350.0 13.286513
27360.0 13.286775
27370.0 13.288656
27380.0 13.290333
27390.0 13.291614
27400.0 13.290301
27410.0 13.286039
27420.0 13.286428
27430.0 13.289080
27440.0 13.293721
27450.0 13.296624
27460.0 13.299533
27470.0 13.299210
27480.0 13.302304
27490.0 13.304258
27500.0 13.304629
27510.0 13.308620
27520.0 13.311801
27530.0 13.314795
27540.0 13.319008
27550.0 13.318640
27560.0 13.316085
27570.0 13.315426
27580.0 13.311957
27590.0 13.309847
27600.0 13.307792
27610.0 13.304255
27620.0 13.300175
27630.0 13.298322
27640.0 13.294955
27650.0 13.294557
27660.0 13.289500
27670.0 13.288342
27680.0 13.287243
27690.0 13.284927
27700.0 13.281830
27710.0 13.278426
27720.0 13.273353
27730.0 13.270875
27740.0 13.267967
27750.0 13.263878
27760.0 13.259389
27770.0 13.255101
27780.0 13.248359
27790.0 13.242405
27800.0 13.239678
27810.0 13.239272
27820.0 13.239921
27830.0 13.240467
27840.0 13.245940
27850.0 13.249694
27860.0 13.249601
27870.0 13.250397
27880.0 13.250180
27890.0 13.252919
27900.0 13.258021
27910.0 13.262568
27920.0 13.270351
27930.0 13.274482
27940.0 13.280244
27950.0 13.286595
27960.0 13.295426
27970.0 13.300320
27980.0 13.303060
27990.0 13.306707
28000.0 13.312332
28010.0 13.320033
28020.0 13.325433
28030.0 13.327142
28040.0 13.327687
28050.0 13.325858
28060.0 13.325191
28070.0 13.323381
28080.0 13.317795
28090.0 13.314220
28100.0 13.312160
28110.0 13.309610
28120.0 13.304381
28130.0 13.302749
28140.0 13.300426
28150.0 13.295484
28160.0 13.292373
28170.0 13.291484
28180.0 13.290905
28190.0 13.290213
28200.0 13.288835
28210.0 13.287639
28220.0 13.286250
28230.0 13.285296
28240.0 13.284465
28250.0 13.285266
28260.0 13.284079
28270.0 13.281743
28280.0 13.284546
28290.0 13.285732
28300.0 13.283942
28310.0 13.280459
28320.0 13.276551
28330.0 13.270934
28340.0 13.268280
28350.0 13.264855
28360.0 13.262263
28370.0 13.258729
28380.0 13.253773
28390.0 13.250372
28400.0 13.250764
28410.0 13.248429
28420.0 13.246875
28430.0 13.249918
28440.0 13.251714
28450.0 13.254593
28460.0 13.258011
28470.0 13.261741
28480.0 13.262982
28490.0 13.268307
28500.0 13.270266
28510.0 13.273090
28520.0 13.273350
28530.0 13.274490
28540.0 13.276199
28550.0 13.273202
28560.0 13.270616
28570.0 13.266904
28580.0 13.263497
28590.0 13.259970
28600.0 13.258162
28610.0 13.254742
28620.0 13.251715
28630.0 13.248153
28640.0 13.245322
28650.0 13.242976
28660.0 13.238536
28670.0 13.236163
28680.0 13.231213
28690.0 13.229676
28700.0 13.226994
28710.0 13.225739
28720.0 13.224774
28730.0 13.221553
28740.0 13.215461
28750.0 13.212410
28760.0 13.210748
28770.0 13.206323
28780.0 13.203695
28790.0 13.199548
28800.0 13.194977
28810.0 13.193002
28820.0 13.188842
28830.0 13.185748
28840.0 13.182789
28850.0 13.180891
28860.0 13.174209
28870.0 13.170263
28880.0 13.168762
28890.0 13.168660
28900.0 13.165718
28910.0 13.164888
28920.0 13.164547
28930.0 13.165707
28940.0 13.166962
28950.0 13.169509
28960.0 13.172417
28970.0 13.177741
28980.0 13.184087
28990.0 13.192997
29000.0 13.198272
29010.0 13.207743
29020.0 13.214690
29030.0 13.222629
29040.0 13.231824
29050.0 13.237518
29060.0 13.244843
29070.0 13.251964
29080.0 13.256888
29090.0 13.266046
29100.0 13.272332
29110.0 13.277487
29120.0 13.285098
29130.0 13.295788
29140.0 13.304995
29150.0 13.313247
29160.0 13.320312
29170.0 13.326523
29180.0 13.333839
29190.0 13.340305
29200.0 13.348698
29210.0 13.357238
29220.0 13.366983
29230.0 13.375643
29240.0 13.382449
29250.0 13.389969
29260.0 13.397531
29270.0 13.408272
29280.0 13.418976
29290.0 13.431480
29300.0 13.441262
29310.0 13.451883
29320.0 13.463395
29330.0 13.472530
29340.0 13.484189
29350.0 13.494604
29360.0 13.503769
29370.0 13.513318
29380.0 13.527154
29390.0 13.537411
29400.0 13.549974
29410.0 13.558536
29420.0 13.567606
29430.0 13.580054
29440.0 13.590589
29450.0 13.599359
29460.0 13.610548
29470.0 13.620347
29480.0 13.630595
29490.0 13.638605
29500.0 13.643688
29510.0 13.653597
29520.0 13.656737
29530.0 13.664444
29540.0 13.671956
29550.0 13.676679
29560.0 13.682874
29570.0 13.691593
29580.0 13.704619
29590.0 13.716093
29600.0 13.729465
29610.0 13.742773
29620.0 13.752507
29630.0 13.766227
29640.0 13.776106
29650.0 13.783790
29660.0 13.792093
29670.0 13.802319
29680.0 13.813504
29690.0 13.825879
29700.0 13.839625
29710.0 13.853476
29720.0 13.866188
29730.0 13.876980
29740.0 13.889170
29750.0 13.904763
29760.0 13.918325
29770.0 13.929343
29780.0 13.941724
29790.0 13.953576
29800.0 13.963302
29810.0 13.971706
29820.0 13.981273
29830.0 13.990840
29840.0 14.003937
29850.0 14.015287
29860.0 14.025727
29870.0 14.035621
29880.0 14.045350
29890.0 14.055115
29900.0 14.068775
29910.0 14.078692
29920.0 14.087788
29930.0 14.096507
29940.0 14.103786
29950.0 14.110884
29960.0 14.119274
29970.0 14.130775
29980.0 14.142098
29990.0 14.153447
30000.0 14.164987
30010.0 14.174762
30020.0 14.184900
30030.0 14.195085
30040.0 14.201061
30050.0 14.210159
30060.0 14.215201
30070.0 14.227700
30080.0 14.238151
30090.0 14.247481
30100.0 14.258223
30110.0 14.266948
30120.0 14.274335
30130.0 14.281819
30140.0 14.288506
30150.0 14.293388
30160.0 14.297038
30170.0 14.299861
30180.0 14.302340
30190.0 14.304404
30200.0 14.312659
30210.0 14.318620
30220.0 14.324881
30230.0 14.330532
30240.0 14.336358
30250.0 14.338751
30260.0 14.344889
30270.0 14.350255
30280.0 14.352393
30290.0 14.355671
30300.0 14.359601
30310.0 14.366410
30320.0 14.368350
30330.0 14.369922
30340.0 14.371059
30350.0 14.372136
30360.0 14.372321
30370.0 14.372089
30380.0 14.375055
30390.0 14.375877
30400.0 14.379600
30410.0 14.381817
30420.0 14.380919
30430.0 14.377445
30440.0 14.374895
30450.0 14.369653
30460.0 14.366069
30470.0 14.363742
30480.0 14.363836
30490.0 14.361723
30500.0 14.359465
30510.0 14.360180
30520.0 14.361242
30530.0 14.360468
30540.0 14.356512
30550.0 14.354374
30560.0 14.350589
30570.0 14.346963
30580.0 14.342861
30590.0 14.340507
30600.0 14.337149
30610.0 14.333215
30620.0 14.331439
30630.0 14.332409
30640.0 14.331173
30650.0 14.328438
30660.0 14.326285
30670.0 14.323581
30680.0 14.322134
30690.0 14.322183
30700.0 14.325908
30710.0 14.329282
30720.0 14.333585
30730.0 14.336013
30740.0 14.337352
30750.0 14.336974
30760.0 14.338461
30770.0 14.340182
30780.0 14.340569
30790.0 14.341791
30800.0 14.341849
30810.0 14.341471
30820.0 14.338732
30830.0 14.339242
30840.0 14.337370
30850.0 14.337085
30860.0 14.336456
30870.0 14.333899
30880.0 14.332748
30890.0 14.333972
30900.0 14.332803
30910.0 14.328364
30920.0 14.328132
30930.0 14.327225
30940.0 14.328658
30950.0 14.327517
30960.0 14.328363
30970.0 14.330123
30980.0 14.331226
30990.0 14.332508
31000.0 14.336030
31010.0 14.335819
31020.0 14.340556
31030.0 14.343375
31040.0 14.347024
31050.0 14.348279
31060.0 14.352824
31070.0 14.358473
31080.0 14.362118
31090.0 14.365349
31100.0 14.371466
31110.0 14.378228
31120.0 14.385625
31130.0 14.389117
31140.0 14.392164
31150.0 14.392692
31160.0 14.393223
31170.0 14.389659
31180.0 14.386470
31190.0 14.383689
31200.0 14.378552
31210.0 14.375484
31220.0 14.370656
31230.0 14.367844
31240.0 14.370458
31250.0 14.369871
31260.0 14.369081
31270.0 14.370456
31280.0 14.370370
31290.0 14.371435
31300.0 14.372789
31310.0 14.375961
31320.0 14.377164
31330.0 14.380784
31340.0 14.383439
31350.0 14.385291
31360.0 14.390762
31370.0 14.390601
31380.0 14.393688
31390.0 14.394435
31400.0 14.398238
31410.0 14.403268
31420.0 14.408655
31430.0 14.413024
31440.0 14.415196
31450.0 14.418379
31460.0 14.422239
31470.0 14.421889
31480.0 14.419928
31490.0 14.414597
31500.0 14.410364
31510.0 14.406993
31520.0 14.405167
31530.0 14.402011
31540.0 14.398725
31550.0 14.395585
31560.0 14.392965
31570.0 14.388753
31580.0 14.386115
31590.0 14.385798
31600.0 14.380646
31610.0 14.379130
31620.0 14.378142
31630.0 14.376196
31640.0 14.372546
31650.0 14.372248
31660.0 14.371037
31670.0 14.366763
31680.0 14.361801
31690.0 14.358903
31700.0 14.354386
31710.0 14.351137
31720.0 14.347777
31730.0 14.345695
31740.0 14.343746
31750.0 14.342250
31760.0 14.338621
31770.0 14.335730
31780.0 14.331730
31790.0 14.328307
31800.0 14.322510
31810.0 14.323011
31820.0 14.323688
31830.0 14.322462
31840.0 14.320507
31850.0 14.320616
31860.0 14.323883
31870.0 14.329350
31880.0 14.333095
31890.0 14.337319
31900.0 14.338882
31910.0 14.341964
31920.0 14.344486
31930.0 14.346841
31940.0 14.350303
31950.0 14.356564
31960.0 14.361905
31970.0 14.367781
31980.0 14.373893
31990.0 14.377418
32000.0 14.381098
32010.0 14.386065
32020.0 14.388493
32030.0 14.390254
32040.0 14.392118
32050.0 14.392715
32060.0 14.391376
32070.0 14.391678
32080.0 14.393868
32090.0 14.395590
32100.0 14.398253
32110.0 14.400459
32120.0 14.399817
32130.0 14.399041
32140.0 14.400585
32150.0 14.401066
32160.0 14.400356
32170.0 14.400169
32180.0 14.401693
32190.0 14.406355
32200.0 14.407762
32210.0 14.410572
32220.0 14.412904
32230.0 14.417363
32240.0 14.418335
32250.0 14.419111
32260.0 14.419692
32270.0 14.417014
32280.0 14.416008
32290.0 14.417119
32300.0 14.417665
32310.0 14.414248
32320.0 14.414389
32330.0 14.418671
32340.0 14.419885
32350.0 14.421535
32360.0 14.424121
32370.0 14.422878
32380.0 14.422766
32390.0 14.422306
32400.0 14.426374
32410.0 14.426796
32420.0 14.430578
32430.0 14.434253
32440.0 14.438577
32450.0 14.439168
32460.0 14.438653
32470.0 14.435981
32480.0 14.431253
32490.0 14.428966
32500.0 14.426887
32510.0 14.423107
32520.0 14.421590
32530.0 14.418264
32540.0 14.415989
32550.0 14.412454
32560.0 14.409982
32570.0 14.403725
32580.0 14.400677
32590.0 14.397708
32600.0 14.393583
32610.0 14.394080
32620.0 14.394738
32630.0 14.390388
32640.0 14.389693
32650.0 14.387095
32660.0 14.384426
32670.0 14.380793
32680.0 14.377209
32690.0 14.374332
32700.0 14.371836
32710.0 14.368536
32720.0 14.363574
32730.0 14.365177
32740.0 14.365555
32750.0 14.364236
32760.0 14.363902
32770.0 14.361333
32780.0 14.356590
32790.0 14.352586
32800.0 14.349063
32810.0 14.349365
32820.0 14.346385
32830.0 14.343425
32840.0 14.339668
32850.0 14.334719
32860.0 14.333820
32870.0 14.333959
32880.0 14.337121
32890.0 14.335439
32900.0 14.333644
32910.0 14.332123
32920.0 14.328981
32930.0 14.326246
32940.0 14.325176
32950.0 14.323188
32960.0 14.323298
32970.0 14.325303
32980.0 14.327884
32990.0 14.330992
33000.0 14.332389
33010.0 14.337091
33020.0 14.344721
33030.0 14.349235
33040.0 14.355485
33050.0 14.358542
33060.0 14.365927
33070.0 14.373874
33080.0 14.385069
33090.0 14.394844
33100.0 14.404720
33110.0 14.418234
33120.0 14.433486
33130.0 14.449638
33140.0 14.460504
33150.0 14.471171
33160.0 14.481498
33170.0 14.491046
33180.0 14.500062
33190.0 14.504572
33200.0 14.512059
33210.0 14.519151
33220.0 14.523785
33230.0 14.530457
33240.0 14.538732
33250.0 14.543721
33260.0 14.547957
33270.0 14.551449
33280.0 14.552989
33290.0 14.555551
33300.0 14.558354
33310.0 14.560268
33320.0 14.559680
33330.0 14.557146
33340.0 14.554673
33350.0 14.551277
33360.0 14.547099
33370.0 14.543032
33380.0 14.538887
33390.0 14.536997
33400.0 14.532200
33410.0 14.528140
33420.0 14.526321
33430.0 14.520430
33440.0 14.518906
33450.0 14.514586
33460.0 14.511962
33470.0 14.510249
33480.0 14.508985
33490.0 14.509996
33500.0 14.510036
33510.0 14.511675
33520.0 14.510447
33530.0 14.511935
33540.0 14.510460
33550.0 14.513215
33560.0 14.517070
33570.0 14.518294
33580.0 14.521030
33590.0 14.522111
33600.0 14.525636
33610.0 14.525514
33620.0 14.529353
33630.0 14.534190
33640.0 14.534482
33650.0 14.536158
33660.0 14.535646
33670.0 14.542599
33680.0 14.544511
33690.0 14.549721
33700.0 14.557662
33710.0 14.568073
33720.0 14.576149
33730.0 14.582916
33740.0 14.588803
33750.0 14.595543
33760.0 14.605124
33770.0 14.613277
33780.0 14.623510
33790.0 14.633143
33800.0 14.641633
33810.0 14.651116
33820.0 14.655439
33830.0 14.660937
33840.0 14.668724
33850.0 14.671380
33860.0 14.672527
33870.0 14.677632
33880.0 14.679084
33890.0 14.680746
33900.0 14.679902
33910.0 14.680564
33920.0 14.678790
33930.0 14.677349
33940.0 14.678049
33950.0 14.678102
33960.0 14.681287
33970.0 14.682359
33980.0 14.684113
33990.0 14.685496
34000.0 14.683855
34010.0 14.684761
34020.0 14.685667
34030.0 14.684411
34040.0 14.684309
34050.0 14.686207
34060.0 14.685256
34070.0 14.683955
34080.0 14.677865
34090.0 14.678020
34100.0 14.674766
34110.0 14.671798
34120.0 14.669352
34130.0 14.665099
34140.0 14.659378
34150.0 14.656834
34160.0 14.652990
34170.0 14.652517
34180.0 14.649015
34190.0 14.646555
34200.0 14.643153
34210.0 14.638528
34220.0 14.634364
34230.0 14.631514
34240.0 14.629003
34250.0 14.622952
34260.0 14.620076
34270.0 14.618556
34280.0 14.613470
34290.0 14.611633
34300.0 14.611421
34310.0 14.605096
34320.0 14.603569
34330.0 14.604620
34340.0 14.604180
34350.0 14.603037
34360.0 14.601274
34370.0 14.606305
34380.0 14.611021
34390.0 14.613573
34400.0 14.614313
34410.0 14.619858
34420.0 14.620065
34430.0 14.621936
34440.0 14.624683
34450.0 14.633125
34460.0 14.635394
34470.0 14.638760
34480.0 14.644833
34490.0 14.651918
34500.0 14.656947
34510.0 14.656565
34520.0 14.657203
34530.0 14.660060
34540.0 14.662087
34550.0 14.663943
34560.0 14.662549
34570.0 14.660838
34580.0 14.657845
34590.0 14.655949
34600.0 14.654573
34610.0 14.653501
34620.0 14.652334
34630.0 14.656720
34640.0 14.657465
34650.0 14.656518
34660.0 14.652154
34670.0 14.651406
34680.0 14.650812
34690.0 14.652001
34700.0 14.653616
34710.0 14.656772
34720.0 14.658085
34730.0 14.658682
34740.0 14.660124
34750.0 14.662313
34760.0 14.662619
34770.0 14.664198
34780.0 14.666100
34790.0 14.662941
34800.0 14.662279
34810.0 14.659660
34820.0 14.658922
34830.0 14.657871
34840.0 14.657878
34850.0 14.659446
34860.0 14.662817
34870.0 14.665622
34880.0 14.669833
34890.0 14.669338
34900.0 14.670125
34910.0 14.668514
34920.0 14.666384
34930.0 14.663525
34940.0 14.660491
34950.0 14.656977
34960.0 14.656034
34970.0 14.655232
34980.0 14.652604
34990.0 14.649141
35000.0 14.645325
35010.0 14.639671
35020.0 14.637946
35030.0 14.634557
35040.0 14.631825
35050.0 14.627097
35060.0 14.623494
35070.0 14.618062
35080.0 14.616059
35090.0 14.614230
35100.0 14.612828
35110.0 14.611908
35120.0 14.605836
35130.0 14.603371
35140.0 14.600964
35150.0 14.600884
35160.0 14.600092
35170.0 14.598271
35180.0 14.598054
35190.0 14.600746
35200.0 14.602998
35210.0 14.609230
35220.0 14.613899
35230.0 14.616098
35240.0 14.618788
35250.0 14.621163
35260.0 14.622482
35270.0 14.622936
35280.0 14.624722
35290.0 14.624714
35300.0 14.626664
35310.0 14.631938
35320.0 14.633324
35330.0 14.637332
35340.0 14.642734
35350.0 14.649146
35360.0 14.653777
35370.0 14.657514
35380.0 14.663440
35390.0 14.672042
35400.0 14.678731
35410.0 14.684913
35420.0 14.691781
35430.0 14.698556
35440.0 14.703103
35450.0 14.707531
35460.0 14.710491
35470.0 14.716367
35480.0 14.720980
35490.0 14.722500
35500.0 14.726988
35510.0 14.733441
35520.0 14.737559
35530.0 14.740711
35540.0 14.747313
35550.0 14.750285
35560.0 14.753451
35570.0 14.757496
35580.0 14.762576
35590.0 14.767420
35600.0 14.773370
35610.0 14.779776
35620.0 14.787407
35630.0 14.798075
35640.0 14.807493
35650.0 14.817865
35660.0 14.830548
35670.0 14.841593
35680.0 14.851236
35690.0 14.861990
35700.0 14.874508
35710.0 14.886783
35720.0 14.895412
35730.0 14.904230
35740.0 14.914093
35750.0 14.920965
35760.0 14.929934
35770.0 14.937096
35780.0 14.945881
35790.0 14.954669
35800.0 14.963659
35810.0 14.970359
35820.0 14.976329
35830.0 14.979427
35840.0 14.982051
35850.0 14.987694
35860.0 14.991542
35870.0 14.996322
35880.0 14.999905
35890.0 15.000339
35900.0 15.002539
35910.0 15.006002
35920.0 15.010283
35930.0 15.017091
35940.0 15.021879
35950.0 15.026529
35960.0 15.029752
35970.0 15.030950
35980.0 15.034641
35990.0 15.037872
36000.0 15.041755
36010.0 15.046207
36020.0 15.049853
36030.0 15.052105
36040.0 15.053377
36050.0 15.054642
36060.0 15.055768
36070.0 15.051311
36080.0 15.052477
36090.0 15.051200
36100.0 15.052486
36110.0 15.053747
36120.0 15.053112
36130.0 15.051701
36140.0 15.050417
36150.0 15.053153
36160.0 15.056605
36170.0 15.056058
36180.0 15.055688
36190.0 15.057952
36200.0 15.058529
36210.0 15.057087
36220.0 15.056127
36230.0 15.053844
36240.0 15.052884
36250.0 15.049958
36260.0 15.048199
36270.0 15.042978
36280.0 15.040045
36290.0 15.035537
36300.0 15.032417
36310.0 15.028207
36320.0 15.024445
36330.0 15.022291
36340.0 15.020573
36350.0 15.021983
36360.0 15.022741
36370.0 15.023499
36380.0 15.024116
36390.0 15.021120
36400.0 15.020330
36410.0 15.018862
36420.0 15.015944
36430.0 15.014244
36440.0 15.010214
36450.0 15.007425
36460.0 15.005000
36470.0 15.001365
36480.0 14.998403
36490.0 14.993627
36500.0 14.990525
36510.0 14.985078
36520.0 14.982346
36530.0 14.979717
36540.0 14.975845
36550.0 14.972390
36560.0 14.968790
36570.0 14.965618
36580.0 14.961997
36590.0 14.959278
36600.0 14.954127
36610.0 14.954017
36620.0 14.951987
36630.0 14.946305
36640.0 14.942977
36650.0 14.941483
36660.0 14.943960
36670.0 14.945109
36680.0 14.946128
36690.0 14.945027
36700.0 14.945885
36710.0 14.945715
36720.0 14.942106
36730.0 14.941056
36740.0 14.938516
36750.0 14.937983
36760.0 14.936448
36770.0 14.936797
36780.0 14.935039
36790.0 14.937010
36800.0 14.938651
36810.0 14.940417
36820.0 14.939513
36830.0 14.939606
36840.0 14.938779
36850.0 14.937197
36860.0 14.938103
36870.0 14.937199
36880.0 14.936949
36890.0 14.939909
36900.0 14.942566
36910.0 14.944961
36920.0 14.947332
36930.0 14.950447
36940.0 14.953809
36950.0 14.956019
36960.0 14.958091
36970.0 14.960645
36980.0 14.962360
36990.0 14.963981
37000.0 14.964212
37010.0 14.965960
37020.0 14.968367
37030.0 14.969474
37040.0 14.970553
37050.0 14.970756
37060.0 14.969099
37070.0 14.969801
37080.0 14.970445
37090.0 14.969008
37100.0 14.966150
37110.0 14.964526
37120.0 14.957992
37130.0 14.956794
37140.0 14.957581
37150.0 14.956332
37160.0 14.955846
37170.0 14.954787
37180.0 14.952244
37190.0 14.951058
37200.0 14.949702
37210.0 14.946746
37220.0 14.941373
37230.0 14.937844
37240.0 14.936213
37250.0 14.932844
37260.0 14.930301
37270.0 14.926719
37280.0 14.925814
37290.0 14.924740
37300.0 14.922493
37310.0 14.919895
37320.0 14.916342
37330.0 14.913138
37340.0 14.908381
37350.0 14.903590
37360.0 14.904205
37370.0 14.903351
37380.0 14.901558
37390.0 14.901412
37400.0 14.899041
37410.0 14.896359
37420.0 14.892416
37430.0 14.889079
37440.0 14.884859
37450.0 14.882498
37460.0 14.878848
37470.0 14.875725
37480.0 14.872641
37490.0 14.872742
37500.0 14.870729
37510.0 14.868822
37520.0 14.864840
37530.0 14.861479
37540.0 14.857076
37550.0 14.855471
37560.0 14.853967
37570.0 14.853328
37580.0 14.850785
37590.0 14.848049
37600.0 14.848020
37610.0 14.848003
37620.0 14.850890
37630.0 14.852034
37640.0 14.851520
37650.0 14.852008
37660.0 14.852248
37670.0 14.854335
37680.0 14.855652
37690.0 14.856960
37700.0 14.857238
37710.0 14.859317
37720.0 14.862749
37730.0 14.863511
37740.0 14.865184
37750.0 14.870929
37760.0 14.874562
37770.0 14.875575
37780.0 14.874363
37790.0 14.872070
37800.0 14.875212
37810.0 14.877133
37820.0 14.874458
37830.0 14.872387
37840.0 14.867180
37850.0 14.865094
37860.0 14.865720
37870.0 14.862885
37880.0 14.859829
37890.0 14.857091
37900.0 14.857697
37910.0 14.855331
37920.0 14.852788
37930.0 14.852674
37940.0 14.851715
37950.0 14.849031
37960.0 14.846913
37970.0 14.844057
37980.0 14.842479
37990.0 14.841604
38000.0 14.842015
38010.0 14.840670
38020.0 14.838044
38030.0 14.837918
38040.0 14.839171
38050.0 14.843932
38060.0 14.845070
38070.0 14.848476
38080.0 14.854869
38090.0 14.858011
38100.0 14.861013
38110.0 14.865221
38120.0 14.868043
38130.0 14.868507
38140.0 14.867292
38150.0 14.869630
38160.0 14.874773
38170.0 14.882437
38180.0 14.887918
38190.0 14.893657
38200.0 14.901371
38210.0 14.909370
38220.0 14.916604
38230.0 14.924940
38240.0 14.932468
38250.0 14.940031
38260.0 14.947509
38270.0 14.954423
38280.0 14.965574
38290.0 14.973046
38300.0 14.980467
38310.0 14.989774
38320.0 14.997648
38330.0 15.006923
38340.0 15.012053
38350.0 15.018350
38360.0 15.024818
38370.0 15.032731
38380.0 15.040722
38390.0 15.045840
38400.0 15.053269
38410.0 15.054636
38420.0 15.059346
38430.0 15.066681
38440.0 15.073609
38450.0 15.081169
38460.0 15.086844
38470.0 15.090504
38480.0 15.092022
38490.0 15.092814
38500.0 15.093642
38510.0 15.095250
38520.0 15.096452
38530.0 15.101589
38540.0 15.102389
38550.0 15.101882
38560.0 15.101208
38570.0 15.101000
38580.0 15.101342
38590.0 15.102018
38600.0 15.103340
38610.0 15.102210
38620.0 15.102768
38630.0 15.100276
38640.0 15.100055
38650.0 15.100521
38660.0 15.101750
38670.0 15.103232
38680.0 15.103792
38690.0 15.106535
38700.0 15.111573
38710.0 15.116827
38720.0 15.119732
38730.0 15.125371
38740.0 15.127416
38750.0 15.132000
38760.0 15.137740
38770.0 15.141558
38780.0 15.142955
38790.0 15.144393
38800.0 15.144945
38810.0 15.145116
38820.0 15.143959
38830.0 15.143262
38840.0 15.145002
38850.0 15.145874
38860.0 15.145325
38870.0 15.141935
38880.0 15.138543
38890.0 15.134843
38900.0 15.131277
38910.0 15.127752
38920.0 15.123968
38930.0 15.121594
38940.0 15.120866
38950.0 15.117983
38960.0 15.114596
38970.0 15.111468
38980.0 15.109196
38990.0 15.107571
39000.0 15.102788
39010.0 15.101144
39020.0 15.098652
39030.0 15.096439
39040.0 15.091001
39050.0 15.089867
39060.0 15.085667
39070.0 15.082906
39080.0 15.078724
39090.0 15.073718
39100.0 15.070028
39110.0 15.065030
39120.0 15.063328
39130.0 15.061785
39140.0 15.061537
39150.0 15.058807
39160.0 15.059301
39170.0 15.057165
39180.0 15.054429
39190.0 15.050840
39200.0 15.047908
39210.0 15.046554
39220.0 15.043086
39230.0 15.041865
39240.0 15.038949
39250.0 15.035885
39260.0 15.032838
39270.0 15.028998
39280.0 15.024657
39290.0 15.020934
39300.0 15.018540
39310.0 15.017756
39320.0 15.018488
39330.0 15.018415
39340.0 15.017215
39350.0 15.016224
39360.0 15.013953
39370.0 15.013067
39380.0 15.011561
39390.0 15.009333
39400.0 15.005467
39410.0 15.003567
39420.0 15.001776
39430.0 15.002204
39440.0 14.998271
39450.0 14.998843
39460.0 14.997280
39470.0 14.994817
39480.0 14.993099
39490.0 14.991124
39500.0 14.988569
39510.0 14.985262
39520.0 14.982653
39530.0 14.980025
39540.0 14.976787
39550.0 14.974859
39560.0 14.972389
39570.0 14.969590
39580.0 14.964501
39590.0 14.959448
39600.0 14.956488
39610.0 14.953282
39620.0 14.952241
39630.0 14.949311
39640.0 14.948582
39650.0 14.949074
39660.0 14.950118
39670.0 14.951658
39680.0 14.954310
39690.0 14.956237
39700.0 14.957146
39710.0 14.956467
39720.0 14.956174
39730.0 14.955348
39740.0 14.953354
39750.0 14.951641
39760.0 14.952182
39770.0 14.950447
39780.0 14.947665
39790.0 14.944192
39800.0 14.941893
39810.0 14.939705
39820.0 14.935201
39830.0 14.933918
39840.0 14.932169
39850.0 14.931472
39860.0 14.930151
39870.0 14.928733
39880.0 14.928166
39890.0 14.927410
39900.0 14.923759
39910.0 14.921278
39920.0 14.916514
39930.0 14.914477
39940.0 14.912333
39950.0 14.910111
39960.0 14.907104
39970.0 14.903493
39980.0 14.901893
39990.0 14.898734
40000.0 14.897579
40010.0 14.894542
40020.0 14.894797
40030.0 14.895530
40040.0 14.898207
40050.0 14.900950
40060.0 14.906053
40070.0 14.910214
40080.0 14.914177
40090.0 14.918029
40100.0 14.922265
40110.0 14.925587
40120.0 14.928658
40130.0 14.930994
40140.0 14.932773
40150.0 14.932834
40160.0 14.933101
40170.0 14.934419
40180.0 14.935203
40190.0 14.936347
40200.0 14.934400
40210.0 14.931622
40220.0 14.927044
40230.0 14.926260
40240.0 14.921965
40250.0 14.919550
40260.0 14.917148
40270.0 14.914209
40280.0 14.913931
40290.0 14.913373
40300.0 14.912889
40310.0 14.909811
40320.0 14.907167
40330.0 14.904963
40340.0 14.901817
40350.0 14.899978
40360.0 14.896145
40370.0 14.893059
40380.0 14.890927
40390.0 14.888223
40400.0 14.886451
40410.0 14.884958
40420.0 14.881999
40430.0 14.879368
40440.0 14.878610
40450.0 14.876317
40460.0 14.874256
40470.0 14.871414
40480.0 14.870406
40490.0 14.867714
40500.0 14.864713
40510.0 14.861546
40520.0 14.858906
40530.0 14.856536
40540.0 14.854660
40550.0 14.851053
40560.0 14.849172
40570.0 14.847131
40580.0 14.844928
40590.0 14.842125
40600.0 14.839360
40610.0 14.837641
40620.0 14.836755
40630.0 14.835031
40640.0 14.833049
40650.0 14.830353
40660.0 14.827500
40670.0 14.826777
40680.0 14.825923
40690.0 14.823170
40700.0 14.823127
40710.0 14.822791
40720.0 14.818127
40730.0 14.817743
40740.0 14.813661
40750.0 14.812448
40760.0 14.810707
40770.0 14.809154
40780.0 14.804456
40790.0 14.802477
40800.0 14.797701
40810.0 14.797678
40820.0 14.794979
40830.0 14.792888
40840.0 14.788661
40850.0 14.784979
40860.0 14.783207
40870.0 14.780418
40880.0 14.778909
40890.0 14.776225
40900.0 14.774323
40910.0 14.775039
40920.0 14.774897
40930.0 14.773511
40940.0 14.775968
40950.0 14.777264
40960.0 14.778840
40970.0 14.777167
40980.0 14.779131
40990.0 14.779750
41000.0 14.779829
41010.0 14.782241
41020.0 14.781786
41030.0 14.781334
41040.0 14.781146
41050.0 14.777904
41060.0 14.775814
41070.0 14.771881
41080.0 14.771834
41090.0 14.771825
41100.0 14.768300
41110.0 14.767241
41120.0 14.763895
41130.0 14.761232
41140.0 14.755418
41150.0 14.753911
41160.0 14.753793
41170.0 14.753690
41180.0 14.750945
41190.0 14.750196
41200.0 14.748657
41210.0 14.747324
41220.0 14.745528
41230.0 14.742561
41240.0 14.739477
41250.0 14.737768
41260.0 14.737408
41270.0 14.737217
41280.0 14.737761
41290.0 14.736592
41300.0 14.735131
41310.0 14.731936
41320.0 14.730103
41330.0 14.725843
41340.0 14.721236
41350.0 14.721147
41360.0 14.719337
41370.0 14.716555
41380.0 14.713809
41390.0 14.712943
41400.0 14.709978
41410.0 14.708416
41420.0 14.705745
41430.0 14.704271
41440.0 14.703205
41450.0 14.703905
41460.0 14.702882
41470.0 14.699889
41480.0 14.698301
41490.0 14.697796
41500.0 14.698416
41510.0 14.700498
41520.0 14.701116
41530.0 14.705535
41540.0 14.705637
41550.0 14.707835
41560.0 14.706726
41570.0 14.705288
41580.0 14.703167
41590.0 14.703301
41600.0 14.702922
41610.0 14.700531
41620.0 14.697653
41630.0 14.694143
41640.0 14.692596
41650.0 14.694812
41660.0 14.695147
41670.0 14.692644
41680.0 14.690392
41690.0 14.688608
41700.0 14.686081
41710.0 14.682001
41720.0 14.679765
41730.0 14.676211
41740.0 14.675352
41750.0 14.670516
41760.0 14.668184
41770.0 14.669947
41780.0 14.669086
41790.0 14.666777
41800.0 14.664041
41810.0 14.662084
41820.0 14.659430
41830.0 14.658232
41840.0 14.654978
41850.0 14.653102
41860.0 14.651700
41870.0 14.649584
41880.0 14.649256
41890.0 14.647058
41900.0 14.642094
41910.0 14.641249
41920.0 14.640297
41930.0 14.640234
41940.0 14.641092
41950.0 14.639261
41960.0 14.640022
41970.0 14.641398
41980.0 14.639987
41990.0 14.638881
42000.0 14.638001
42010.0 14.636195
42020.0 14.637031
42030.0 14.637086
42040.0 14.637450
42050.0 14.636710
42060.0 14.637121
42070.0 14.637036
42080.0 14.636917
42090.0 14.637483
42100.0 14.639261
42110.0 14.641140
42120.0 14.643476
42130.0 14.644981
42140.0 14.649361
42150.0 14.656587
42160.0 14.662301
42170.0 14.670050
42180.0 14.676939
42190.0 14.682883
42200.0 14.693236
42210.0 14.702180
42220.0 14.713257
42230.0 14.722572
42240.0 14.732511
42250.0 14.743856
42260.0 14.754630
42270.0 14.766582
42280.0 14.776493
42290.0 14.788875
42300.0 14.800802
42310.0 14.814510
42320.0 14.825893
42330.0 14.834850
42340.0 14.844591
42350.0 14.854527
42360.0 14.864253
42370.0 14.875123
42380.0 14.882060
42390.0 14.888200
42400.0 14.896685
42410.0 14.906490
42420.0 14.913574
42430.0 14.920589
42440.0 14.928301
42450.0 14.933799
42460.0 14.942806
42470.0 14.952950
42480.0 14.961957
42490.0 14.969230
42500.0 14.976419
42510.0 14.984331
42520.0 14.992167
42530.0 15.001352
42540.0 15.007125
42550.0 15.016763
42560.0 15.025815
42570.0 15.036065
42580.0 15.044282
42590.0 15.054662
42600.0 15.065263
42610.0 15.072674
42620.0 15.083451
42630.0 15.092492
42640.0 15.104336
42650.0 15.113381
42660.0 15.125051
42670.0 15.133333
42680.0 15.138914
42690.0 15.145859
42700.0 15.153329
42710.0 15.157539
42720.0 15.164448
42730.0 15.172709
42740.0 15.182417
42750.0 15.190562
42760.0 15.198667
42770.0 15.208140
42780.0 15.219239
42790.0 15.230072
42800.0 15.238898
42810.0 15.247613
42820.0 15.257072
42830.0 15.266196
42840.0 15.274959
42850.0 15.286079
42860.0 15.295782
42870.0 15.304221
42880.0 15.308829
42890.0 15.316564
42900.0 15.324113
42910.0 15.329593
42920.0 15.335227
42930.0 15.341422
42940.0 15.341973
42950.0 15.343078
42960.0 15.342514
42970.0 15.343425
42980.0 15.347000
42990.0 15.346399
43000.0 15.346289
43010.0 15.347269
43020.0 15.349133
43030.0 15.348732
43040.0 15.346334
43050.0 15.346717
43060.0 15.346820
43070.0 15.346880
43080.0 15.344999
43090.0 15.342481
43100.0 15.341183
43110.0 15.339790
43120.0 15.338712
43130.0 15.337221
43140.0 15.337373
43150.0 15.336691
43160.0 15.334270
43170.0 15.335012
43180.0 15.336203
43190.0 15.338293
43200.0 15.338922
43210.0 15.339169
43220.0 15.342431
43230.0 15.342533
43240.0 15.343028
43250.0 15.341594
43260.0 15.341779
43270.0 15.340512
43280.0 15.338989
43290.0 15.339033
43300.0 15.339734
43310.0 15.341312
43320.0 15.343456
43330.0 15.343870
43340.0 15.344515
43350.0 15.342079
43360.0 15.339598
43370.0 15.337427
43380.0 15.334634
43390.0 15.332459
43400.0 15.331421
43410.0 15.327098
43420.0 15.324064
43430.0 15.321966
43440.0 15.319570
43450.0 15.317949
43460.0 15.315716
43470.0 15.314310
43480.0 15.309989
43490.0 15.307871
43500.0 15.304195
43510.0 15.303038
43520.0 15.300674
43530.0 15.298013
43540.0 15.299455
43550.0 15.302634
43560.0 15.303418
43570.0 15.307640
43580.0 15.311755
43590.0 15.314778
43600.0 15.317197
43610.0 15.318138
43620.0 15.319929
43630.0 15.318999
43640.0 15.317044
43650.0 15.315221
43660.0 15.312043
43670.0 15.310399
43680.0 15.308619
43690.0 15.306615
43700.0 15.304617
43710.0 15.302149
43720.0 15.299372
43730.0 15.296263
43740.0 15.292089
43750.0 15.287709
43760.0 15.284955
43770.0 15.284231
43780.0 15.284338
43790.0 15.280704
43800.0 15.279355
43810.0 15.277425
43820.0 15.275248
43830.0 15.271643
43840.0 15.267836
43850.0 15.266258
43860.0 15.263174
43870.0 15.260208
43880.0 15.257311
43890.0 15.257062
43900.0 15.256982
43910.0 15.255584
43920.0 15.256907
43930.0 15.259136
43940.0 15.259783
43950.0 15.258519
43960.0 15.259826
43970.0 15.259606
43980.0 15.258611
43990.0 15.260013
44000.0 15.259953
44010.0 15.261974
44020.0 15.264859
44030.0 15.267941
44040.0 15.268843
44050.0 15.270518
44060.0 15.272062
44070.0 15.274296
44080.0 15.276598
44090.0 15.279668
44100.0 15.282550
44110.0 15.284307
44120.0 15.285777
44130.0 15.287904
44140.0 15.288674
44150.0 15.293476
44160.0 15.294961
44170.0 15.298773
44180.0 15.303776
44190.0 15.306969
44200.0 15.309842
44210.0 15.310808
44220.0 15.311076
44230.0 15.316016
44240.0 15.318585
44250.0 15.317900
44260.0 15.317504
44270.0 15.316586
44280.0 15.314578
44290.0 15.313309
44300.0 15.312684
44310.0 15.313669
44320.0 15.312658
44330.0 15.312307
44340.0 15.309878
44350.0 15.306601
44360.0 15.303505
44370.0 15.299634
44380.0 15.299628
44390.0 15.298143
44400.0 15.293335
44410.0 15.289641
44420.0 15.286532
44430.0 15.283415
44440.0 15.280627
44450.0 15.278591
44460.0 15.274826
44470.0 15.272488
44480.0 15.269110
44490.0 15.265920
44500.0 15.264478
44510.0 15.261810
44520.0 15.260806
44530.0 15.257497
44540.0 15.254651
44550.0 15.251586
44560.0 15.248581
44570.0 15.246217
44580.0 15.244810
44590.0 15.243379
44600.0 15.239775
44610.0 15.238496
44620.0 15.234902
44630.0 15.233324
44640.0 15.230797
44650.0 15.229156
44660.0 15.230517
44670.0 15.231522
44680.0 15.231214
44690.0 15.229712
44700.0 15.227195
44710.0 15.224492
44720.0 15.221522
44730.0 15.218441
44740.0 15.215567
44750.0 15.214185
44760.0 15.212178
44770.0 15.207921
44780.0 15.205074
44790.0 15.204130
44800.0 15.202462
44810.0 15.203025
44820.0 15.201727
44830.0 15.203583
44840.0 15.206190
44850.0 15.209141
44860.0 15.210500
44870.0 15.213486
44880.0 15.216437
44890.0 15.219764
44900.0 15.222314
44910.0 15.221160
44920.0 15.219130
44930.0 15.217818
44940.0 15.213758
44950.0 15.210907
44960.0 15.210159
44970.0 15.208148
44980.0 15.204798
44990.0 15.202725
45000.0 15.202011
45010.0 15.202563
45020.0 15.201179
45030.0 15.198533
45040.0 15.197885
45050.0 15.195513
45060.0 15.196733
45070.0 15.196455
45080.0 15.195907
45090.0 15.194417
45100.0 15.192358
45110.0 15.193583
45120.0 15.193296
45130.0 15.191274
45140.0 15.189737
45150.0 15.187756
45160.0 15.186785
45170.0 15.183789
45180.0 15.180278
45190.0 15.177280
45200.0 15.174961
45210.0 15.173304
45220.0 15.171157
45230.0 15.168372
45240.0 15.167488
45250.0 15.166847
45260.0 15.164607
45270.0 15.164335
45280.0 15.165855
45290.0 15.165602
45300.0 15.164606
45310.0 15.163994
45320.0 15.163118
45330.0 15.163478
45340.0 15.162814
45350.0 15.163398
45360.0 15.163691
45370.0 15.165373
45380.0 15.166105
45390.0 15.167900
45400.0 15.169992
45410.0 15.172048
45420.0 15.174814
45430.0 15.176285
45440.0 15.176983
45450.0 15.177180
45460.0 15.176438
45470.0 15.174228
45480.0 15.172982
45490.0 15.174275
45500.0 15.174859
45510.0 15.176803
45520.0 15.175579
45530.0 15.176749
45540.0 15.176584
45550.0 15.176066
45560.0 15.175778
45570.0 15.174145
45580.0 15.173688
45590.0 15.172026
45600.0 15.168708
45610.0 15.166689
45620.0 15.165297
45630.0 15.163063
45640.0 15.160705
45650.0 15.158807
45660.0 15.154808
45670.0 15.153273
45680.0 15.152415
45690.0 15.150077
45700.0 15.147827
45710.0 15.145250
45720.0 15.142846
45730.0 15.141291
45740.0 15.140397
45750.0 15.137218
45760.0 15.133431
45770.0 15.130194
45780.0 15.129222
45790.0 15.127853
45800.0 15.127073
45810.0 15.122752
45820.0 15.120454
45830.0 15.118303
45840.0 15.115719
45850.0 15.112529
45860.0 15.109733
45870.0 15.110032
45880.0 15.106812
45890.0 15.106395
45900.0 15.106391
45910.0 15.109249
45920.0 15.112082
45930.0 15.112889
45940.0 15.112840
45950.0 15.114222
45960.0 15.116736
45970.0 15.119161
45980.0 15.120251
45990.0 15.119784
46000.0 15.121313
46010.0 15.120100
46020.0 15.118811
46030.0 15.119841
46040.0 15.119307
46050.0 15.119389
46060.0 15.120901
46070.0 15.118543
46080.0 15.119383
46090.0 15.120892
46100.0 15.120358
46110.0 15.122610
46120.0 15.122447
46130.0 15.121095
46140.0 15.120414
46150.0 15.119299
46160.0 15.117259
46170.0 15.117967
46180.0 15.116916
46190.0 15.117515
46200.0 15.116828
46210.0 15.114621
46220.0 15.112260
46230.0 15.109546
46240.0 15.107675
46250.0 15.108434
46260.0 15.107449
46270.0 15.106520
46280.0 15.105380
46290.0 15.106443
46300.0 15.107975
46310.0 15.109787
46320.0 15.112631
46330.0 15.113548
46340.0 15.113971
46350.0 15.112782
46360.0 15.113603
46370.0 15.113753
46380.0 15.114243
46390.0 15.114234
46400.0 15.113956
46410.0 15.113288
46420.0 15.112521
46430.0 15.112511
46440.0 15.114905
46450.0 15.117619
46460.0 15.119448
46470.0 15.119535
46480.0 15.116944
46490.0 15.115995
46500.0 15.114062
46510.0 15.112815
46520.0 15.116935
46530.0 15.118789
46540.0 15.121054
46550.0 15.123075
46560.0 15.122712
46570.0 15.124964
46580.0 15.125110
46590.0 15.126264
46600.0 15.127064
46610.0 15.126277
46620.0 15.130162
46630.0 15.133670
46640.0 15.134103
46650.0 15.135844
46660.0 15.136875
46670.0 15.137385
46680.0 15.138323
46690.0 15.136665
46700.0 15.134801
46710.0 15.132947
46720.0 15.131691
46730.0 15.127648
46740.0 15.124532
46750.0 15.121370
46760.0 15.117260
46770.0 15.115073
46780.0 15.114099
46790.0 15.111961
46800.0 15.113541
46810.0 15.114622
46820.0 15.112413
46830.0 15.112198
46840.0 15.109756
46850.0 15.106368
46860.0 15.104053
46870.0 15.100827
46880.0 15.099114
46890.0 15.097841
46900.0 15.096520
46910.0 15.095753
46920.0 15.095007
46930.0 15.095003
46940.0 15.093566
46950.0 15.091225
46960.0 15.088255
46970.0 15.085652
46980.0 15.082832
46990.0 15.080263
47000.0 15.077537
47010.0 15.075191
47020.0 15.071187
47030.0 15.070314
47040.0 15.070153
47050.0 15.068957
47060.0 15.068516
47070.0 15.067065
47080.0 15.063536
47090.0 15.062665
47100.0 15.059086
47110.0 15.055996
47120.0 15.054130
47130.0 15.054520
47140.0 15.053454
47150.0 15.050212
47160.0 15.051421
47170.0 15.052660
47180.0 15.054828
47190.0 15.056036
47200.0 15.057180
47210.0 15.056314
47220.0 15.054137
47230.0 15.055414
47240.0 15.055424
47250.0 15.056121
47260.0 15.057351
47270.0 15.058245
47280.0 15.058713
47290.0 15.057912
47300.0 15.059771
47310.0 15.057922
47320.0 15.056391
47330.0 15.055684
47340.0 15.055718
47350.0 15.056391
47360.0 15.058283
47370.0 15.059570
47380.0 15.060885
47390.0 15.060869
47400.0 15.061025
47410.0 15.061836
47420.0 15.061212
47430.0 15.060707
47440.0 15.058463
47450.0 15.059857
47460.0 15.058138
47470.0 15.056233
47480.0 15.054949
47490.0 15.052480
47500.0 15.051012
47510.0 15.047667
47520.0 15.046054
47530.0 15.046478
47540.0 15.043762
47550.0 15.041157
47560.0 15.039846
47570.0 15.036379
47580.0 15.033030
47590.0 15.031775
47600.0 15.030178
47610.0 15.028893
47620.0 15.027414
47630.0 15.024611
47640.0 15.022692
47650.0 15.020174
47660.0 15.015887
47670.0 15.013637
47680.0 15.013328
47690.0 15.012451
47700.0 15.010721
47710.0 15.011301
47720.0 15.010313
47730.0 15.008617
47740.0 15.006766
47750.0 15.007898
47760.0 15.008352
47770.0 15.012384
47780.0 15.016450
47790.0 15.021582
47800.0 15.026439
47810.0 15.031915
47820.0 15.033697
47830.0 15.036591
47840.0 15.040292
47850.0 15.041524
47860.0 15.045272
47870.0 15.048893
47880.0 15.055374
47890.0 15.060797
47900.0 15.064905
47910.0 15.068399
47920.0 15.069936
47930.0 15.074023
47940.0 15.077809
47950.0 15.079089
47960.0 15.078403
47970.0 15.080698
47980.0 15.080627
47990.0 15.082506
48000.0 15.083020
48010.0 15.082251
48020.0 15.083000
48030.0 15.082701
48040.0 15.081088
48050.0 15.079377
48060.0 15.077701
48070.0 15.076146
48080.0 15.075644
48090.0 15.074014
48100.0 15.076718
48110.0 15.079252
48120.0 15.081326
48130.0 15.082127
48140.0 15.082829
48150.0 15.082729
48160.0 15.081934
48170.0 15.084136
48180.0 15.083782
48190.0 15.084572
48200.0 15.086495
48210.0 15.086881
48220.0 15.086542
48230.0 15.086429
48240.0 15.089558
48250.0 15.092354
48260.0 15.092406
48270.0 15.094992
48280.0 15.096322
48290.0 15.098922
48300.0 15.100362
48310.0 15.101205
48320.0 15.100827
48330.0 15.102793
48340.0 15.103005
48350.0 15.102024
48360.0 15.101675
48370.0 15.101672
48380.0 15.100385
48390.0 15.097630
48400.0 15.095898
48410.0 15.095323
48420.0 15.094893
48430.0 15.093386
48440.0 15.094185
48450.0 15.095596
48460.0 15.097676
48470.0 15.099587
48480.0 15.100868
48490.0 15.103191
48500.0 15.104776
48510.0 15.106702
48520.0 15.107502
48530.0 15.108904
48540.0 15.109590
48550.0 15.109117
48560.0 15.107246
48570.0 15.106901
48580.0 15.108018
48590.0 15.108264
48600.0 15.106892
48610.0 15.106359
48620.0 15.104375
48630.0 15.100495
48640.0 15.099956
48650.0 15.099695
48660.0 15.098738
48670.0 15.095791
48680.0 15.093338
48690.0 15.090018
48700.0 15.088075
48710.0 15.085605
48720.0 15.081926
48730.0 15.079848
48740.0 15.078893
48750.0 15.077000
48760.0 15.075232
48770.0 15.074389
48780.0 15.072874
48790.0 15.070783
48800.0 15.069223
48810.0 15.068423
48820.0 15.066443
48830.0 15.064910
48840.0 15.061868
48850.0 15.059164
48860.0 15.055841
48870.0 15.054165
48880.0 15.052192
48890.0 15.049901
48900.0 15.048615
48910.0 15.048955
48920.0 15.049942
48930.0 15.048506
48940.0 15.048280
48950.0 15.047727
48960.0 15.047289
48970.0 15.048337
48980.0 15.047103
48990.0 15.048633
49000.0 15.048569
49010.0 15.047952
49020.0 15.048004
49030.0 15.046818
49040.0 15.045609
49050.0 15.044776
49060.0 15.042605
49070.0 15.041822
49080.0 15.041875
49090.0 15.038936
49100.0 15.037055
49110.0 15.035928
49120.0 15.033007
49130.0 15.031657
49140.0 15.031921
49150.0 15.031667
49160.0 15.031459
49170.0 15.030572
49180.0 15.028505
49190.0 15.026341
49200.0 15.024617
49210.0 15.023523
49220.0 15.022065
49230.0 15.020573
49240.0 15.017969
49250.0 15.015647
49260.0 15.016940
49270.0 15.016210
49280.0 15.018004
49290.0 15.020215
49300.0 15.020281
49310.0 15.021266
49320.0 15.022188
49330.0 15.021286
49340.0 15.020075
49350.0 15.019349
49360.0 15.018082
49370.0 15.017604
49380.0 15.016298
49390.0 15.015446
49400.0 15.012340
49410.0 15.010622
49420.0 15.006938
49430.0 15.003680
49440.0 15.002997
49450.0 15.000862
49460.0 15.001988
49470.0 15.002116
49480.0 15.001122
49490.0 14.999025
49500.0 14.995954
49510.0 14.994582
49520.0 14.992890
49530.0 14.989379
49540.0 14.986353
49550.0 14.985293
49560.0 14.984312
49570.0 14.984174
49580.0 14.983048
49590.0 14.983038
49600.0 14.982704
49610.0 14.982391
49620.0 14.984295
49630.0 14.987457
49640.0 14.990801
49650.0 14.995112
49660.0 15.001149
49670.0 15.005380
49680.0 15.007367
49690.0 15.012830
49700.0 15.019604
49710.0 15.023423
49720.0 15.027177
49730.0 15.034219
49740.0 15.039948
49750.0 15.047006
49760.0 15.054962
49770.0 15.064853
49780.0 15.074208
49790.0 15.084041
49800.0 15.093809
49810.0 15.103311
49820.0 15.114967
49830.0 15.126016
49840.0 15.138281
49850.0 15.150491
49860.0 15.160567
49870.0 15.170872
49880.0 15.179188
49890.0 15.186198
49900.0 15.194933
49910.0 15.202144
49920.0 15.209572
49930.0 15.215049
49940.0 15.218814
49950.0 15.223281
49960.0 15.228655
49970.0 15.233917
49980.0 15.237293
49990.0 15.239916
50000.0 15.244463
50010.0 15.246888
50020.0 15.250453
50030.0 15.255229
50040.0 15.259654
50050.0 15.263755
50060.0 15.270682
50070.0 15.275700
50080.0 15.280804
50090.0 15.284764
50100.0 15.290742
50110.0 15.294528
50120.0 15.300508
50130.0 15.307964
50140.0 15.315256
50150.0 15.323610
50160.0 15.329668
50170.0 15.337944
50180.0 15.346911
50190.0 15.355635
50200.0 15.362652
50210.0 15.368059
50220.0 15.373606
50230.0 15.383902
50240.0 15.393094
50250.0 15.403207
50260.0 15.412953
50270.0 15.421167
50280.0 15.429269
50290.0 15.436616
50300.0 15.444141
50310.0 15.449135
50320.0 15.451611
50330.0 15.455440
50340.0 15.461310
50350.0 15.466325
50360.0 15.473299
50370.0 15.480521
50380.0 15.486132
50390.0 15.489941
50400.0 15.494924
50410.0 15.499754
50420.0 15.503657
50430.0 15.508495
50440.0 15.513537
50450.0 15.517189
50460.0 15.518242
50470.0 15.521228
50480.0 15.522756
50490.0 15.524497
50500.0 15.526928
50510.0 15.527361
50520.0 15.529241
50530.0 15.530523
50540.0 15.530675
50550.0 15.531640
50560.0 15.533873
50570.0 15.535320
50580.0 15.536298
50590.0 15.536967
50600.0 15.538857
50610.0 15.542036
50620.0 15.543792
50630.0 15.545090
50640.0 15.546514
50650.0 15.547685
50660.0 15.548615
50670.0 15.547779
50680.0 15.546324
50690.0 15.544381
50700.0 15.540581
50710.0 15.537807
50720.0 15.535923
50730.0 15.534184
50740.0 15.533859
50750.0 15.533676
50760.0 15.535484
50770.0 15.536439
50780.0 15.536705
50790.0 15.537918
50800.0 15.538590
50810.0 15.538214
50820.0 15.539171
50830.0 15.542570
50840.0 15.543931
50850.0 15.547284
50860.0 15.547430
50870.0 15.546773
50880.0 15.546547
50890.0 15.546702
50900.0 15.544796
50910.0 15.542657
50920.0 15.539799
50930.0 15.539978
50940.0 15.540222
50950.0 15.538703
50960.0 15.538479
50970.0 15.537700
50980.0 15.534262
50990.0 15.531491
51000.0 15.527616
51010.0 15.525958
51020.0 15.525510
51030.0 15.525229
51040.0 15.523470
51050.0 15.520292
51060.0 15.516934
51070.0 15.514236
51080.0 15.510888
51090.0 15.510072
51100.0 15.509479
51110.0 15.507480
51120.0 15.503856
51130.0 15.501276
51140.0 15.499006
51150.0 15.496271
51160.0 15.495146
51170.0 15.494390
51180.0 15.493075
51190.0 15.491902
51200.0 15.489335
51210.0 15.489552
51220.0 15.489115
51230.0 15.489802
51240.0 15.489269
51250.0 15.487546
51260.0 15.488900
51270.0 15.489199
51280.0 15.490177
51290.0 15.490925
51300.0 15.490044
51310.0 15.488074
51320.0 15.485642
51330.0 15.484020
51340.0 15.483381
51350.0 15.483136
51360.0 15.481325
51370.0 15.483050
51380.0 15.485791
51390.0 15.489546
51400.0 15.491802
51410.0 15.494671
51420.0 15.497507
51430.0 15.500965
51440.0 15.502125
51450.0 15.505019
51460.0 15.506596
51470.0 15.509751
51480.0 15.511003
51490.0 15.511210
51500.0 15.512363
51510.0 15.511470
51520.0 15.509930
51530.0 15.507895
51540.0 15.505333
51550.0 15.503267
51560.0 15.500993
51570.0 15.498860
51580.0 15.495639
51590.0 15.494142
51600.0 15.491339
51610.0 15.488509
51620.0 15.484337
51630.0 15.482175
51640.0 15.479810
51650.0 15.477160
51660.0 15.474917
51670.0 15.471938
51680.0 15.468691
51690.0 15.469313
51700.0 15.467944
51710.0 15.464997
51720.0 15.460807
51730.0 15.459140
51740.0 15.457920
51750.0 15.457102
51760.0 15.457765
51770.0 15.459839
51780.0 15.459431
51790.0 15.457233
51800.0 15.458120
51810.0 15.457793
51820.0 15.456731
51830.0 15.455378
51840.0 15.455543
51850.0 15.456232
51860.0 15.455116
51870.0 15.453786
51880.0 15.454103
51890.0 15.452530
51900.0 15.449876
51910.0 15.448828
51920.0 15.448734
51930.0 15.449450
51940.0 15.448434
51950.0 15.447699
51960.0 15.445909
51970.0 15.444130
51980.0 15.442390
51990.0 15.439778
52000.0 15.436060
52010.0 15.434235
52020.0 15.433800
52030.0 15.431400
52040.0 15.428156
52050.0 15.427452
52060.0 15.425323
52070.0 15.422958
52080.0 15.420371
52090.0 15.418680
52100.0 15.416413
52110.0 15.413270
52120.0 15.411048
52130.0 15.408047
52140.0 15.405480
52150.0 15.404292
52160.0 15.402222
52170.0 15.400917
52180.0 15.398985
52190.0 15.395565
52200.0 15.393966
52210.0 15.392097
52220.0 15.390839
52230.0 15.388662
52240.0 15.385692
52250.0 15.384217
52260.0 15.381795
52270.0 15.378811
52280.0 15.377446
52290.0 15.376437
52300.0 15.374368
52310.0 15.371802
52320.0 15.368895
52330.0 15.367590
52340.0 15.365271
52350.0 15.362478
52360.0 15.362860
52370.0 15.360917
52380.0 15.362467
52390.0 15.362679
52400.0 15.365743
52410.0 15.366181
52420.0 15.366236
52430.0 15.366141
52440.0 15.369205
52450.0 15.371329
52460.0 15.373291
52470.0 15.376108
52480.0 15.376693
52490.0 15.376715
52500.0 15.377425
52510.0 15.378259
52520.0 15.377298
52530.0 15.376483
52540.0 15.376442
52550.0 15.377337
52560.0 15.376644
52570.0 15.374633
52580.0 15.370703
52590.0 15.369383
52600.0 15.367594
52610.0 15.365861
52620.0 15.363511
52630.0 15.361786
52640.0 15.358648
52650.0 15.356761
52660.0 15.356585
52670.0 15.356671
52680.0 15.356762
52690.0 15.356910
52700.0 15.354365
52710.0 15.352547
52720.0 15.348235
52730.0 15.348069
52740.0 15.345867
52750.0 15.345614
52760.0 15.344220
52770.0 15.342566
52780.0 15.342403
52790.0 15.341107
52800.0 15.339835
52810.0 15.338305
52820.0 15.337731
52830.0 15.336592
52840.0 15.333423
52850.0 15.331077
52860.0 15.329134
52870.0 15.326412
52880.0 15.324789
52890.0 15.322497
52900.0 15.319176
52910.0 15.318398
52920.0 15.317150
52930.0 15.316120
52940.0 15.315084
52950.0 15.315883
52960.0 15.315627
52970.0 15.314675
52980.0 15.316363
52990.0 15.316288
53000.0 15.316493
53010.0 15.315514
53020.0 15.311877
53030.0 15.309819
53040.0 15.310739
53050.0 15.309219
53060.0 15.308585
53070.0 15.306829
53080.0 15.307319
53090.0 15.306679
53100.0 15.305683
53110.0 15.302961
53120.0 15.301439
53130.0 15.299417
53140.0 15.296023
53150.0 15.295666
53160.0 15.294863
53170.0 15.291647
53180.0 15.287609
53190.0 15.286400
53200.0 15.285739
53210.0 15.284138
53220.0 15.285483
53230.0 15.285381
53240.0 15.283799
53250.0 15.280448
53260.0 15.278438
53270.0 15.274546
53280.0 15.274591
53290.0 15.273549
53300.0 15.272865
53310.0 15.272214
53320.0 15.270865
53330.0 15.267620
53340.0 15.264322
53350.0 15.262350
53360.0 15.261208
53370.0 15.258882
53380.0 15.256977
53390.0 15.256121
53400.0 15.254131
53410.0 15.253562
53420.0 15.253018
53430.0 15.251336
53440.0 15.247204
53450.0 15.246309
53460.0 15.244270
53470.0 15.244211
53480.0 15.243084
53490.0 15.240378
53500.0 15.238660
53510.0 15.235754
53520.0 15.232832
53530.0 15.229179
53540.0 15.228335
53550.0 15.227246
53560.0 15.225594
53570.0 15.222947
53580.0 15.222254
53590.0 15.220377
53600.0 15.218007
53610.0 15.217172
53620.0 15.214596
53630.0 15.215343
53640.0 15.217044
53650.0 15.218761
53660.0 15.219186
53670.0 15.220102
53680.0 15.221136
53690.0 15.221104
53700.0 15.219945
53710.0 15.218128
53720.0 15.216742
53730.0 15.217223
53740.0 15.214555
53750.0 15.212921
53760.0 15.212156
53770.0 15.208812
53780.0 15.206854
53790.0 15.204922
53800.0 15.202029
53810.0 15.200701
53820.0 15.198295
53830.0 15.196967
53840.0 15.195290
53850.0 15.193343
53860.0 15.189605
53870.0 15.187340
53880.0 15.185222
53890.0 15.182916
53900.0 15.180459
53910.0 15.178890
53920.0 15.175808
53930.0 15.173618
53940.0 15.171654
53950.0 15.169472
53960.0 15.168446
53970.0 15.167155
53980.0 15.165854
53990.0 15.163691
54000.0 15.160299
54010.0 15.159086
54020.0 15.158849
54030.0 15.158654
54040.0 15.157455
54050.0 15.155807
54060.0 15.156557
54070.0 15.155849
54080.0 15.154874
54090.0 15.153431
54100.0 15.152064
54110.0 15.149882
54120.0 15.147934
54130.0 15.147535
54140.0 15.145529
54150.0 15.143155
54160.0 15.142100
54170.0 15.140222
54180.0 15.136512
54190.0 15.135264
54200.0 15.134395
54210.0 15.131854
54220.0 15.127869
54230.0 15.125973
54240.0 15.123561
54250.0 15.121504
54260.0 15.120210
54270.0 15.118179
54280.0 15.118103
54290.0 15.119202
54300.0 15.118193
54310.0 15.117330
54320.0 15.114938
54330.0 15.112859
54340.0 15.110331
54350.0 15.110137
54360.0 15.108486
54370.0 15.107618
54380.0 15.104085
54390.0 15.102157
54400.0 15.101162
54410.0 15.099858
54420.0 15.099858
54430.0 15.099627
54440.0 15.098529
54450.0 15.100137
54460.0 15.100886
54470.0 15.101883
54480.0 15.101345
54490.0 15.102771
54500.0 15.104531
54510.0 15.104512
54520.0 15.106162
54530.0 15.107516
54540.0 15.107135
54550.0 15.105327
54560.0 15.104880
54570.0 15.106127
54580.0 15.105476
54590.0 15.107805
54600.0 15.110123
54610.0 15.114984
54620.0 15.119643
54630.0 15.124099
54640.0 15.127138
54650.0 15.130347
54660.0 15.133116
54670.0 15.137110
54680.0 15.142470
54690.0 15.147950
54700.0 15.151213
54710.0 15.153740
54720.0 15.158024
54730.0 15.160566
54740.0 15.162989
54750.0 15.165962
54760.0 15.166807
54770.0 15.168518
54780.0 15.169401
54790.0 15.170734
54800.0 15.172534
54810.0 15.171949
54820.0 15.171435
54830.0 15.169116
54840.0 15.167930
54850.0 15.166236
54860.0 15.164662
54870.0 15.163091
54880.0 15.162462
54890.0 15.159569
54900.0 15.157740
54910.0 15.156907
54920.0 15.157233
54930.0 15.155772
54940.0 15.153701
54950.0 15.152441
54960.0 15.149761
54970.0 15.147317
54980.0 15.144812
54990.0 15.142181
55000.0 15.139492
55010.0 15.137755
55020.0 15.136413
55030.0 15.134918
55040.0 15.132303
55050.0 15.130921
55060.0 15.129665
55070.0 15.125547
55080.0 15.124059
55090.0 15.122969
55100.0 15.118345
55110.0 15.117966
55120.0 15.118497
55130.0 15.117335
55140.0 15.117880
55150.0 15.117803
55160.0 15.119254
55170.0 15.120024
55180.0 15.120169
55190.0 15.119440
55200.0 15.119250
55210.0 15.117902
55220.0 15.114696
55230.0 15.112876
55240.0 15.111726
55250.0 15.110370
55260.0 15.108660
55270.0 15.106329
55280.0 15.104340
55290.0 15.104319
55300.0 15.102842
55310.0 15.098897
55320.0 15.096865
55330.0 15.093909
55340.0 15.092127
55350.0 15.090505
55360.0 15.088427
55370.0 15.085592
55380.0 15.083960
55390.0 15.082393
55400.0 15.080002
55410.0 15.077601
55420.0 15.075043
55430.0 15.073887
55440.0 15.070744
55450.0 15.071060
55460.0 15.071317
55470.0 15.072773
55480.0 15.074152
55490.0 15.075331
55500.0 15.073491
55510.0 15.072502
55520.0 15.069668
55530.0 15.067857
55540.0 15.065009
55550.0 15.064314
55560.0 15.060348
55570.0 15.059021
55580.0 15.058199
55590.0 15.055022
55600.0 15.053045
55610.0 15.050100
55620.0 15.049167
55630.0 15.045763
55640.0 15.043170
55650.0 15.041796
55660.0 15.041238
55670.0 15.038644
55680.0 15.034640
55690.0 15.033099
55700.0 15.031824
55710.0 15.030905
55720.0 15.029935
55730.0 15.026925
55740.0 15.024836
55750.0 15.021992
55760.0 15.020983
55770.0 15.019617
55780.0 15.019492
55790.0 15.016006
55800.0 15.015009
55810.0 15.013087
55820.0 15.009732
55830.0 15.008013
55840.0 15.006554
55850.0 15.003758
55860.0 15.001179
55870.0 15.000682
55880.0 14.998823
55890.0 14.997293
55900.0 14.995374
55910.0 14.994226
55920.0 14.993089
55930.0 14.992109
55940.0 14.990130
55950.0 14.991647
55960.0 14.990703
55970.0 14.991817
55980.0 14.993272
55990.0 14.994667
56000.0 14.994087
56010.0 14.994459
56020.0 14.994413
56030.0 14.993613
56040.0 14.993728
56050.0 14.993603
56060.0 14.993970
56070.0 14.992883
56080.0 14.991261
56090.0 14.990105
56100.0 14.985397
56110.0 14.984272
56120.0 14.981420
56130.0 14.978872
56140.0 14.977164
56150.0 14.975074
56160.0 14.972461
56170.0 14.969710
56180.0 14.967345
56190.0 14.964511
56200.0 14.962868
56210.0 14.961915
56220.0 14.960860
56230.0 14.959305
56240.0 14.959347
56250.0 14.961434
56260.0 14.962339
56270.0 14.966187
56280.0 14.970994
56290.0 14.976975
56300.0 14.980523
56310.0 14.985380
56320.0 14.987654
56330.0 14.992613
56340.0 14.994969
56350.0 14.997852
56360.0 15.001036
56370.0 15.006335
56380.0 15.008399
56390.0 15.010218
56400.0 15.013713
56410.0 15.015680
56420.0 15.014262
56430.0 15.013109
56440.0 15.011225
56450.0 15.009934
56460.0 15.010475
56470.0 15.011623
56480.0 15.012894
56490.0 15.013774
56500.0 15.015925
56510.0 15.016272
56520.0 15.018444
56530.0 15.019872
56540.0 15.021606
56550.0 15.021078
56560.0 15.021923
56570.0 15.024319
56580.0 15.024538
56590.0 15.026023
56600.0 15.027553
56610.0 15.028279
56620.0 15.028503
56630.0 15.029154
56640.0 15.029509
56650.0 15.031685
56660.0 15.032501
56670.0 15.030660
56680.0 15.028078
56690.0 15.027833
56700.0 15.026789
56710.0 15.026900
56720.0 15.026471
56730.0 15.026637
56740.0 15.025075
56750.0 15.022540
56760.0 15.020392
56770.0 15.019923
56780.0 15.017332
56790.0 15.015942
56800.0 15.013338
56810.0 15.010806
56820.0 15.010242
56830.0 15.010026
56840.0 15.011424
56850.0 15.010642
56860.0 15.010716
56870.0 15.011068
56880.0 15.012178
56890.0 15.015629
56900.0 15.020502
56910.0 15.025624
56920.0 15.029234
56930.0 15.033973
56940.0 15.039973
56950.0 15.046843
56960.0 15.053067
56970.0 15.058817
56980.0 15.064608
56990.0 15.070618
57000.0 15.074425
57010.0 15.080801
57020.0 15.085179
57030.0 15.090949
57040.0 15.095547
57050.0 15.100164
57060.0 15.104571
57070.0 15.106715
57080.0 15.110743
57090.0 15.114752
57100.0 15.119781
57110.0 15.123239
57120.0 15.125520
57130.0 15.127847
57140.0 15.129910
57150.0 15.131981
57160.0 15.135354
57170.0 15.137571
57180.0 15.139720
57190.0 15.139230
57200.0 15.139981
57210.0 15.139634
57220.0 15.138270
57230.0 15.137603
57240.0 15.136428
57250.0 15.137305
57260.0 15.137091
57270.0 15.137691
57280.0 15.136587
57290.0 15.137035
57300.0 15.135712
57310.0 15.136430
57320.0 15.136715
57330.0 15.135493
57340.0 15.137295
57350.0 15.138626
57360.0 15.139629
57370.0 15.140634
57380.0 15.139675
57390.0 15.137573
57400.0 15.138333
57410.0 15.138397
57420.0 15.138727
57430.0 15.140191
57440.0 15.142006
57450.0 15.143736
57460.0 15.145079
57470.0 15.147397
57480.0 15.149378
57490.0 15.150727
57500.0 15.152723
57510.0 15.155072
57520.0 15.158925
57530.0 15.161409
57540.0 15.165350
57550.0 15.169211
57560.0 15.172592
57570.0 15.174450
57580.0 15.176119
57590.0 15.179540
57600.0 15.182344
57610.0 15.187034
57620.0 15.191611
57630.0 15.194911
57640.0 15.198770
57650.0 15.201560
57660.0 15.204617
57670.0 15.207413
57680.0 15.208095
57690.0 15.208692
57700.0 15.206908
57710.0 15.205490
57720.0 15.205203
57730.0 15.205198
57740.0 15.205351
57750.0 15.205909
57760.0 15.207136
57770.0 15.208782
57780.0 15.208380
57790.0 15.209281
57800.0 15.211720
57810.0 15.212642
57820.0 15.213952
57830.0 15.215470
57840.0 15.216196
57850.0 15.217865
57860.0 15.220266
57870.0 15.220561
57880.0 15.218457
57890.0 15.218269
57900.0 15.219760
57910.0 15.220042
57920.0 15.219846
57930.0 15.220299
57940.0 15.220257
57950.0 15.220867
57960.0 15.221625
57970.0 15.222073
57980.0 15.221291
57990.0 15.221181
58000.0 15.222760
58010.0 15.222759
58020.0 15.222020
58030.0 15.221954
58040.0 15.222790
58050.0 15.223871
58060.0 15.225961
58070.0 15.228692
58080.0 15.233272
58090.0 15.237177
58100.0 15.239767
58110.0 15.240784
58120.0 15.240330
58130.0 15.241718
58140.0 15.244323
58150.0 15.247024
58160.0 15.250748
58170.0 15.254592
58180.0 15.256037
58190.0 15.258775
58200.0 15.262957
58210.0 15.268343
58220.0 15.273207
58230.0 15.278525
58240.0 15.282857
58250.0 15.284371
58260.0 15.288125
58270.0 15.292721
58280.0 15.297646
58290.0 15.300465
58300.0 15.303824
58310.0 15.308089
58320.0 15.310768
58330.0 15.313799
58340.0 15.315013
58350.0 15.315567
58360.0 15.316050
58370.0 15.317221
58380.0 15.318450
58390.0 15.318103
58400.0 15.316285
58410.0 15.314422
58420.0 15.312281
58430.0 15.311884
58440.0 15.309276
58450.0 15.307760
58460.0 15.305993
58470.0 15.303272
58480.0 15.300993
58490.0 15.299851
58500.0 15.297799
58510.0 15.296014
58520.0 15.294517
58530.0 15.292627
58540.0 15.290146
58550.0 15.288913
58560.0 15.286159
58570.0 15.285071
58580.0 15.282748
58590.0 15.280166
58600.0 15.277392
58610.0 15.275145
58620.0 15.274807
58630.0 15.272401
58640.0 15.271974
58650.0 15.272385
58660.0 15.273306
58670.0 15.273891
58680.0 15.273811
58690.0 15.272125
58700.0 15.272260
58710.0 15.272461
58720.0 15.270781
58730.0 15.271290
58740.0 15.269034
58750.0 15.267928
58760.0 15.265150
58770.0 15.263838
58780.0 15.261918
58790.0 15.259866
58800.0 15.257089
58810.0 15.254150
58820.0 15.253378
58830.0 15.251645
58840.0 15.249532
58850.0 15.248509
58860.0 15.247234
58870.0 15.244840
58880.0 15.243731
58890.0 15.243408
58900.0 15.242453
58910.0 15.242796
58920.0 15.240812
58930.0 15.239345
58940.0 15.236869
58950.0 15.236525
58960.0 15.235828
58970.0 15.234361
58980.0 15.232723
58990.0 15.231105
59000.0 15.229885
59010.0 15.227036
59020.0 15.224852
59030.0 15.223561
59040.0 15.221577
59050.0 15.220958
59060.0 15.218976
59070.0 15.217509
59080.0 15.214683
59090.0 15.212004
59100.0 15.212114
59110.0 15.211733
59120.0 15.211857
59130.0 15.210431
59140.0 15.208219
59150.0 15.205678
59160.0 15.203814
59170.0 15.200980
59180.0 15.199304
59190.0 15.198747
59200.0 15.197884
59210.0 15.196224
59220.0 15.195836
59230.0 15.193131
59240.0 15.192313
59250.0 15.192287
59260.0 15.189700
59270.0 15.188335
59280.0 15.189140
59290.0 15.189185
59300.0 15.190305
59310.0 15.188854
59320.0 15.187676
59330.0 15.185069
59340.0 15.183646
59350.0 15.182344
59360.0 15.181619
59370.0 15.180982
59380.0 15.179174
59390.0 15.178677
59400.0 15.177348
59410.0 15.178276
59420.0 15.177986
59430.0 15.177195
59440.0 15.175597
59450.0 15.175227
59460.0 15.175804
59470.0 15.175443
59480.0 15.173205
59490.0 15.170949
59500.0 15.168537
59510.0 15.166469
59520.0 15.164626
59530.0 15.163319
59540.0 15.159782
59550.0 15.158474
59560.0 15.155333
59570.0 15.155198
59580.0 15.153746
59590.0 15.152506
59600.0 15.152400
59610.0 15.150674
59620.0 15.149058
59630.0 15.147312
59640.0 15.145797
59650.0 15.144237
59660.0 15.142205
59670.0 15.139424
59680.0 15.137968
59690.0 15.135949
59700.0 15.133876
59710.0 15.132909
59720.0 15.132407
59730.0 15.130282
59740.0 15.128028
59750.0 15.125797
59760.0 15.124815
59770.0 15.123679
59780.0 15.120897
59790.0 15.118580
59800.0 15.116576
59810.0 15.114793
59820.0 15.113225
59830.0 15.110615
59840.0 15.108910
59850.0 15.106724
59860.0 15.105680
59870.0 15.105000
59880.0 15.104943
59890.0 15.104303
59900.0 15.103452
59910.0 15.100975
59920.0 15.101196
59930.0 15.099536
59940.0 15.099773
59950.0 15.102054
59960.0 15.103663
59970.0 15.104733
59980.0 15.105625
59990.0 15.106135
60000.0 15.105807
60010.0 15.103433
60020.0 15.102482
60030.0 15.100362
60040.0 15.098718
60050.0 15.095976
60060.0 15.094420
60070.0 15.092428
60080.0 15.090456
60090.0 15.089685
60100.0 15.087483
60110.0 15.085444
60120.0 15.083540
60130.0 15.081483
60140.0 15.080121
60150.0 15.077717
60160.0 15.076872
60170.0 15.076608
60180.0 15.074794
60190.0 15.073314
60200.0 15.073380
60210.0 15.071865
60220.0 15.070288
60230.0 15.068071
60240.0 15.065225
60250.0 15.064578
60260.0 15.064372
60270.0 15.062136
60280.0 15.060992
60290.0 15.061059
60300.0 15.061760
60310.0 15.061969
60320.0 15.062050
60330.0 15.062237
60340.0 15.061102
60350.0 15.059088
60360.0 15.060452
60370.0 15.059605
60380.0 15.060987
60390.0 15.060476
60400.0 15.059226
60410.0 15.057534
60420.0 15.055513
60430.0 15.056424
60440.0 15.055852
60450.0 15.054752
60460.0 15.054790
60470.0 15.056500
60480.0 15.059017
60490.0 15.058976
60500.0 15.058911
60510.0 15.058736
60520.0 15.056577
60530.0 15.053641
60540.0 15.051687
60550.0 15.049053
60560.0 15.049129
60570.0 15.050884
60580.0 15.051613
60590.0 15.053783
60600.0 15.055226
60610.0 15.055697
60620.0 15.057287
60630.0 15.058261
60640.0 15.060619
60650.0 15.063612
60660.0 15.066679
60670.0 15.069215
60680.0 15.072250
60690.0 15.072754
60700.0 15.076153
60710.0 15.078007
60720.0 15.078536
60730.0 15.078687
60740.0 15.079060
60750.0 15.079593
60760.0 15.081176
60770.0 15.081609
60780.0 15.082667
60790.0 15.084460
60800.0 15.088567
60810.0 15.093255
60820.0 15.098697
60830.0 15.103284
60840.0 15.106888
60850.0 15.111591
60860.0 15.114643
60870.0 15.118164
60880.0 15.120387
60890.0 15.123768
60900.0 15.125923
60910.0 15.127764
60920.0 15.129117
60930.0 15.131330
60940.0 15.132271
60950.0 15.133603
60960.0 15.135321
60970.0 15.138519
60980.0 15.139714
60990.0 15.138899
61000.0 15.141556
61010.0 15.143884
61020.0 15.144856
61030.0 15.146628
61040.0 15.147117
61050.0 15.150034
61060.0 15.151098
61070.0 15.153197
61080.0 15.154710
61090.0 15.156870
61100.0 15.159342
61110.0 15.161962
61120.0 15.165009
61130.0 15.166578
61140.0 15.169401
61150.0 15.172546
61160.0 15.174225
61170.0 15.177134
61180.0 15.180275
61190.0 15.181363
61200.0 15.185216
61210.0 15.187449
61220.0 15.189341
61230.0 15.191914
61240.0 15.195085
61250.0 15.197772
61260.0 15.200828
61270.0 15.203748
61280.0 15.205400
61290.0 15.206132
61300.0 15.205251
61310.0 15.203610
61320.0 15.204658
61330.0 15.202785
61340.0 15.200583
61350.0 15.200134
61360.0 15.201399
61370.0 15.200834
61380.0 15.199677
61390.0 15.198795
61400.0 15.196677
61410.0 15.195294
61420.0 15.194477
61430.0 15.194419
61440.0 15.192510
61450.0 15.190196
61460.0 15.187601
61470.0 15.185609
61480.0 15.183770
61490.0 15.182071
61500.0 15.180397
61510.0 15.178032
61520.0 15.176684
61530.0 15.175471
61540.0 15.174095
61550.0 15.172271
61560.0 15.168975
61570.0 15.166768
61580.0 15.164393
61590.0 15.163096
61600.0 15.161790
61610.0 15.162362
61620.0 15.160901
61630.0 15.160273
61640.0 15.160754
61650.0 15.161470
61660.0 15.159510
61670.0 15.160092
61680.0 15.159031
61690.0 15.158617
61700.0 15.157858
61710.0 15.156939
61720.0 15.155679
61730.0 15.153747
61740.0 15.152215
61750.0 15.149857
61760.0 15.148140
61770.0 15.146332
61780.0 15.144380
61790.0 15.142056
61800.0 15.139723
61810.0 15.136771
61820.0 15.134483
61830.0 15.132379
61840.0 15.131568
61850.0 15.130675
61860.0 15.130749
61870.0 15.128759
61880.0 15.128343
61890.0 15.126683
61900.0 15.125875
61910.0 15.124427
61920.0 15.123633
61930.0 15.123150
61940.0 15.123085
61950.0 15.124598
61960.0 15.122932
61970.0 15.122087
61980.0 15.118482
61990.0 15.117783
62000.0 15.118415
62010.0 15.119333
62020.0 15.119943
62030.0 15.120931
62040.0 15.121730
62050.0 15.123944
62060.0 15.124625
62070.0 15.125393
62080.0 15.126062
62090.0 15.123691
62100.0 15.122717
62110.0 15.123512
62120.0 15.123454
62130.0 15.121996
62140.0 15.120714
62150.0 15.119463
62160.0 15.118244
62170.0 15.116914
62180.0 15.114818
62190.0 15.112252
62200.0 15.110969
62210.0 15.110168
62220.0 15.107772
62230.0 15.106063
62240.0 15.104033
62250.0 15.101746
62260.0 15.101426
62270.0 15.101663
62280.0 15.100704
62290.0 15.097843
62300.0 15.097789
62310.0 15.096367
62320.0 15.093235
62330.0 15.091278
62340.0 15.090130
62350.0 15.089421
62360.0 15.087630
62370.0 15.085901
62380.0 15.084706
62390.0 15.082870
62400.0 15.081024
62410.0 15.079030
62420.0 15.076335
62430.0 15.074851
62440.0 15.072661
62450.0 15.070484
62460.0 15.069227
62470.0 15.067759
62480.0 15.066207
62490.0 15.066207
62500.0 15.066278
62510.0 15.066582
62520.0 15.068042
62530.0 15.067791
62540.0 15.069521
62550.0 15.070014
62560.0 15.070168
62570.0 15.071104
62580.0 15.071427
62590.0 15.069834
62600.0 15.068924
62610.0 15.067074
62620.0 15.064940
62630.0 15.063999
62640.0 15.061851
62650.0 15.060534
62660.0 15.058549
62670.0 15.055974
62680.0 15.054406
62690.0 15.051846
62700.0 15.052126
62710.0 15.050678
62720.0 15.048851
62730.0 15.046878
62740.0 15.045332
62750.0 15.045171
62760.0 15.042372
62770.0 15.041728
62780.0 15.040393
62790.0 15.038842
62800.0 15.036797
62810.0 15.034492
62820.0 15.032564
62830.0 15.031061
62840.0 15.030883
62850.0 15.029940
62860.0 15.029055
62870.0 15.027561
62880.0 15.025208
62890.0 15.023573
62900.0 15.021460
62910.0 15.020343
62920.0 15.018688
62930.0 15.017426
62940.0 15.019059
62950.0 15.020603
62960.0 15.021664
62970.0 15.023692
62980.0 15.025653
62990.0 15.026297
63000.0 15.026015
63010.0 15.024732
63020.0 15.022609
63030.0 15.020595
63040.0 15.019098
63050.0 15.017025
63060.0 15.016077
63070.0 15.013840
63080.0 15.012575
63090.0 15.010974
63100.0 15.008155
63110.0 15.006463
63120.0 15.003987
63130.0 15.001656
63140.0 15.000138
63150.0 14.999126
63160.0 14.997791
63170.0 14.996444
63180.0 14.995008
63190.0 14.993217
63200.0 14.992897
63210.0 14.990633
63220.0 14.987594
63230.0 14.986141
63240.0 14.984661
63250.0 14.983447
63260.0 14.982109
63270.0 14.980246
63280.0 14.979186
63290.0 14.977116
63300.0 14.975657
63310.0 14.974086
63320.0 14.973076
63330.0 14.972171
63340.0 14.971147
63350.0 14.968376
63360.0 14.966300
63370.0 14.964043
63380.0 14.963118
63390.0 14.961041
63400.0 14.959211
63410.0 14.958225
63420.0 14.956605
63430.0 14.956167
63440.0 14.953562
63450.0 14.950749
63460.0 14.948902
63470.0 14.948525
63480.0 14.948780
63490.0 14.948193
63500.0 14.947741
63510.0 14.948715
63520.0 14.951854
63530.0 14.954142
63540.0 14.956961
63550.0 14.958688
63560.0 14.961647
63570.0 14.963465
63580.0 14.967143
63590.0 14.970638
63600.0 14.974646
63610.0 14.978365
63620.0 14.981452
63630.0 14.983235
63640.0 14.984879
63650.0 14.987576
63660.0 14.988497
63670.0 14.989599
63680.0 14.992952
63690.0 14.995642
63700.0 14.998065
63710.0 15.001375
63720.0 15.004755
63730.0 15.007822
63740.0 15.011358
63750.0 15.014959
63760.0 15.019578
63770.0 15.024726
63780.0 15.028495
63790.0 15.032381
63800.0 15.035607
63810.0 15.038481
63820.0 15.043363
63830.0 15.048167
63840.0 15.053632
63850.0 15.058730
63860.0 15.064610
63870.0 15.069826
63880.0 15.073595
63890.0 15.078368
63900.0 15.082446
63910.0 15.087791
63920.0 15.091082
63930.0 15.094087
63940.0 15.097753
63950.0 15.102245
63960.0 15.106396
63970.0 15.110638
63980.0 15.115553
63990.0 15.118951
64000.0 15.121894
64010.0 15.123452
64020.0 15.126013
64030.0 15.127049
64040.0 15.130490
64050.0 15.135001
64060.0 15.137792
64070.0 15.138661
64080.0 15.139883
64090.0 15.140678
64100.0 15.141136
64110.0 15.142393
64120.0 15.145222
64130.0 15.149448
64140.0 15.154607
64150.0 15.160384
64160.0 15.167550
64170.0 15.172798
64180.0 15.178806
64190.0 15.183274
64200.0 15.186629
64210.0 15.189570
64220.0 15.192138
64230.0 15.195737
64240.0 15.199303
64250.0 15.201494
64260.0 15.205270
64270.0 15.210281
64280.0 15.213086
64290.0 15.217704
64300.0 15.222853
64310.0 15.225255
64320.0 15.229571
64330.0 15.235367
64340.0 15.240388
64350.0 15.245462
64360.0 15.251266
64370.0 15.255947
64380.0 15.261669
64390.0 15.265547
64400.0 15.271917
64410.0 15.276873
64420.0 15.281562
64430.0 15.286426
64440.0 15.292263
64450.0 15.297076
64460.0 15.300357
64470.0 15.303290
64480.0 15.305583
64490.0 15.308540
64500.0 15.310406
64510.0 15.314008
64520.0 15.315765
64530.0 15.317046
64540.0 15.319183
64550.0 15.322086
64560.0 15.323141
64570.0 15.323751
64580.0 15.325323
64590.0 15.326400
64600.0 15.327295
64610.0 15.326907
64620.0 15.326325
64630.0 15.325482
64640.0 15.325905
64650.0 15.328705
64660.0 15.332031
64670.0 15.334747
64680.0 15.336728
64690.0 15.338908
64700.0 15.340754
64710.0 15.341777
64720.0 15.344231
64730.0 15.346031
64740.0 15.345909
64750.0 15.347385
64760.0 15.347972
64770.0 15.347591
64780.0 15.347776
64790.0 15.349831
64800.0 15.351725
64810.0 15.353470
64820.0 15.354109
64830.0 15.354522
64840.0 15.353596
64850.0 15.353622
64860.0 15.354475
64870.0 15.353853
64880.0 15.352304
64890.0 15.351152
64900.0 15.350467
64910.0 15.348655
64920.0 15.346276
64930.0 15.344876
64940.0 15.343534
64950.0 15.342776
64960.0 15.343696
64970.0 15.344430
64980.0 15.344046
64990.0 15.343419
65000.0 15.344340
65010.0 15.344689
65020.0 15.345264
65030.0 15.344867
65040.0 15.344814
65050.0 15.346751
65060.0 15.347699
65070.0 15.349075
65080.0 15.350700
65090.0 15.352713
65100.0 15.354573
65110.0 15.357360
65120.0 15.359549
65130.0 15.359358
65140.0 15.360073
65150.0 15.360643
65160.0 15.360910
65170.0 15.362011
65180.0 15.363833
65190.0 15.365100
65200.0 15.368996
65210.0 15.371930
65220.0 15.374432
65230.0 15.375157
65240.0 15.376880
65250.0 15.376764
65260.0 15.376143
65270.0 15.375462
65280.0 15.374997
65290.0 15.376785
65300.0 15.376927
65310.0 15.376753
65320.0 15.376063
65330.0 15.376286
65340.0 15.376762
65350.0 15.376600
65360.0 15.376640
65370.0 15.375518
65380.0 15.375408
65390.0 15.373768
65400.0 15.371774
65410.0 15.371238
65420.0 15.368202
65430.0 15.368054
65440.0 15.366722
65450.0 15.366200
65460.0 15.365856
65470.0 15.366440
65480.0 15.363570
65490.0 15.363244
65500.0 15.362573
65510.0 15.361502
65520.0 15.359997
65530.0 15.358765
65540.0 15.357392
65550.0 15.356187
65560.0 15.354947
65570.0 15.353142
65580.0 15.353151
65590.0 15.352709
65600.0 15.352083
65610.0 15.350744
65620.0 15.352692
65630.0 15.354116
65640.0 15.353934
65650.0 15.354367
65660.0 15.355370
65670.0 15.356329
65680.0 15.357972
65690.0 15.358575
65700.0 15.358957
65710.0 15.358437
65720.0 15.357689
65730.0 15.357731
65740.0 15.356429
65750.0 15.356129
65760.0 15.353345
65770.0 15.350816
65780.0 15.350154
65790.0 15.348202
65800.0 15.348033
65810.0 15.347850
65820.0 15.345697
65830.0 15.344072
65840.0 15.341947
65850.0 15.342554
65860.0 15.341873
65870.0 15.340541
65880.0 15.340010
65890.0 15.339742
65900.0 15.338768
65910.0 15.336979
65920.0 15.336077
65930.0 15.335151
65940.0 15.334959
65950.0 15.333446
65960.0 15.333286
65970.0 15.332869
65980.0 15.332550
65990.0 15.332282
66000.0 15.331593
66010.0 15.333407
66020.0 15.333079
66030.0 15.334219
66040.0 15.335068
66050.0 15.335091
66060.0 15.333577
66070.0 15.335215
66080.0 15.334942
66090.0 15.336840
66100.0 15.337618
66110.0 15.340469
66120.0 15.342968
66130.0 15.343760
66140.0 15.345623
66150.0 15.347431
66160.0 15.349227
66170.0 15.350000
66180.0 15.349764
66190.0 15.350737
66200.0 15.350691
66210.0 15.351777
66220.0 15.352672
66230.0 15.352925
66240.0 15.355596
66250.0 15.357557
66260.0 15.359572
66270.0 15.361435
66280.0 15.364169
66290.0 15.365952
66300.0 15.366247
66310.0 15.365064
66320.0 15.363077
66330.0 15.361198
66340.0 15.358751
66350.0 15.358241
66360.0 15.355889
66370.0 15.354832
66380.0 15.354940
66390.0 15.353620
66400.0 15.351286
66410.0 15.350295
66420.0 15.348653
66430.0 15.347189
66440.0 15.344587
66450.0 15.342798
66460.0 15.341454
66470.0 15.340445
66480.0 15.339900
66490.0 15.338521
66500.0 15.338283
66510.0 15.336961
66520.0 15.336084
66530.0 15.333562
66540.0 15.331200
66550.0 15.330569
66560.0 15.328866
66570.0 15.326433
66580.0 15.323937
66590.0 15.321469
66600.0 15.320074
66610.0 15.319118
66620.0 15.317039
66630.0 15.315460
66640.0 15.313573
66650.0 15.312458
66660.0 15.310308
66670.0 15.308316
66680.0 15.307705
66690.0 15.307678
66700.0 15.309835
66710.0 15.309403
66720.0 15.310548
66730.0 15.312225
66740.0 15.313320
66750.0 15.314093
66760.0 15.315886
66770.0 15.317189
66780.0 15.317506
66790.0 15.317257
66800.0 15.315775
66810.0 15.316477
66820.0 15.317660
66830.0 15.320747
66840.0 15.324366
66850.0 15.326285
66860.0 15.327340
66870.0 15.329282
66880.0 15.330530
66890.0 15.333145
66900.0 15.335598
66910.0 15.339265
66920.0 15.342812
66930.0 15.345728
66940.0 15.348371
66950.0 15.349217
66960.0 15.351908
66970.0 15.354412
66980.0 15.357363
66990.0 15.359992
67000.0 15.360648
67010.0 15.361685
67020.0 15.363821
67030.0 15.365202
67040.0 15.366323
67050.0 15.369078
67060.0 15.370888
67070.0 15.373141
67080.0 15.375904
67090.0 15.378153
67100.0 15.380950
67110.0 15.384761
67120.0 15.387669
67130.0 15.389655
67140.0 15.392481
67150.0 15.392935
67160.0 15.394115
67170.0 15.394975
67180.0 15.395114
67190.0 15.395389
67200.0 15.396393
67210.0 15.399246
67220.0 15.399782
67230.0 15.402186
67240.0 15.403674
67250.0 15.405840
67260.0 15.409705
67270.0 15.413396
67280.0 15.416524
67290.0 15.420017
67300.0 15.421652
67310.0 15.422957
67320.0 15.425519
67330.0 15.427054
67340.0 15.428294
67350.0 15.429415
67360.0 15.430238
67370.0 15.429731
67380.0 15.430495
67390.0 15.429685
67400.0 15.429088
67410.0 15.426494
67420.0 15.424020
67430.0 15.422283
67440.0 15.422266
67450.0 15.422069
67460.0 15.422414
67470.0 15.422400
67480.0 15.422064
67490.0 15.421621
67500.0 15.421879
67510.0 15.421312
67520.0 15.420798
67530.0 15.420672
67540.0 15.421566
67550.0 15.420704
67560.0 15.421266
67570.0 15.419919
67580.0 15.418721
67590.0 15.416220
67600.0 15.414047
67610.0 15.412095
67620.0 15.411527
67630.0 15.410209
67640.0 15.408172
67650.0 15.406550
67660.0 15.405447
67670.0 15.404507
67680.0 15.405079
67690.0 15.404921
67700.0 15.404347
67710.0 15.404275
67720.0 15.401963
67730.0 15.401302
67740.0 15.400638
67750.0 15.398520
67760.0 15.397245
67770.0 15.394683
67780.0 15.392871
67790.0 15.391059
67800.0 15.389531
67810.0 15.386891
67820.0 15.387913
67830.0 15.388763
67840.0 15.389661
67850.0 15.389676
67860.0 15.389969
67870.0 15.390778
67880.0 15.391672
67890.0 15.392036
67900.0 15.391595
67910.0 15.392035
67920.0 15.392171
67930.0 15.391320
67940.0 15.392548
67950.0 15.391881
67960.0 15.391776
67970.0 15.391646
67980.0 15.391496
67990.0 15.392084
68000.0 15.394405
68010.0 15.393424
68020.0 15.391893
68030.0 15.390431
68040.0 15.391516
68050.0 15.391325
68060.0 15.392016
68070.0 15.390872
68080.0 15.390687
68090.0 15.389684
68100.0 15.389155
68110.0 15.389970
68120.0 15.392429
68130.0 15.393791
68140.0 15.395306
68150.0 15.398142
68160.0 15.399285
68170.0 15.400526
68180.0 15.403846
68190.0 15.405945
68200.0 15.409956
68210.0 15.412426
68220.0 15.414116
68230.0 15.418708
68240.0 15.421726
68250.0 15.424621
68260.0 15.427873
68270.0 15.430911
68280.0 15.435949
68290.0 15.439273
68300.0 15.443802
68310.0 15.448366
68320.0 15.452378
68330.0 15.457690
68340.0 15.464500
68350.0 15.469746
68360.0 15.476352
68370.0 15.481728
68380.0 15.485796
68390.0 15.488050
68400.0 15.493256
68410.0 15.499555
68420.0 15.505369
68430.0 15.510967
68440.0 15.519339
68450.0 15.526611
68460.0 15.533915
68470.0 15.542591
68480.0 15.549291
68490.0 15.556848
68500.0 15.564195
68510.0 15.570361
68520.0 15.575261
68530.0 15.579896
68540.0 15.583995
68550.0 15.590391
68560.0 15.596919
68570.0 15.606710
68580.0 15.613785
68590.0 15.622045
68600.0 15.630221
68610.0 15.639612
68620.0 15.650586
68630.0 15.661425
68640.0 15.673014
68650.0 15.686591
68660.0 15.698330
68670.0 15.708449
68680.0 15.719214
68690.0 15.731102
68700.0 15.742471
68710.0 15.752428
68720.0 15.764175
68730.0 15.773245
68740.0 15.784399
68750.0 15.795546
68760.0 15.806546
68770.0 15.816571
68780.0 15.825377
68790.0 15.836330
68800.0 15.846641
68810.0 15.857032
68820.0 15.867106
68830.0 15.877599
68840.0 15.886842
68850.0 15.893553
68860.0 15.902356
68870.0 15.911100
68880.0 15.920061
68890.0 15.926539
68900.0 15.934560
68910.0 15.941819
68920.0 15.949199
68930.0 15.957495
68940.0 15.966309
68950.0 15.972910
68960.0 15.977892
68970.0 15.984925
68980.0 15.991496
68990.0 15.998650
69000.0 16.005373
69010.0 16.011758
69020.0 16.017940
69030.0 16.022772
69040.0 16.028180
69050.0 16.034481
69060.0 16.040758
69070.0 16.049515
69080.0 16.056390
69090.0 16.065443
69100.0 16.072851
69110.0 16.080587
69120.0 16.089006
69130.0 16.096389
69140.0 16.102859
69150.0 16.111487
69160.0 16.120184
69170.0 16.128609
69180.0 16.137967
69190.0 16.146198
69200.0 16.153828
69210.0 16.161214
69220.0 16.170602
69230.0 16.179350
69240.0 16.186191
69250.0 16.194000
69260.0 16.201847
69270.0 16.210886
69280.0 16.221062
69290.0 16.230101
69300.0 16.239757
69310.0 16.248114
69320.0 16.255885
69330.0 16.264592
69340.0 16.274483
69350.0 16.283334
69360.0 16.290584
69370.0 16.298025
69380.0 16.305033
69390.0 16.314757
69400.0 16.324945
69410.0 16.335710
69420.0 16.345056
69430.0 16.354705
69440.0 16.366307
69450.0 16.376387
69460.0 16.385978
69470.0 16.398945
69480.0 16.409778
69490.0 16.421492
69500.0 16.434934
69510.0 16.446902
69520.0 16.458295
69530.0 16.471398
69540.0 16.482317
69550.0 16.490797
69560.0 16.501886
69570.0 16.513635
69580.0 16.524112
69590.0 16.535842
69600.0 16.545192
69610.0 16.555749
69620.0 16.565890
69630.0 16.576459
69640.0 16.584073
69650.0 16.593041
69660.0 16.601934
69670.0 16.610755
69680.0 16.620191
69690.0 16.627599
69700.0 16.635608
69710.0 16.644084
69720.0 16.653021
69730.0 16.661515
69740.0 16.668227
69750.0 16.677026
69760.0 16.685477
69770.0 16.693508
69780.0 16.703821
69790.0 16.712325
69800.0 16.719891
69810.0 16.727525
69820.0 16.735122
69830.0 16.742686
69840.0 16.751535
69850.0 16.759491
69860.0 16.766582
69870.0 16.774046
69880.0 16.779038
69890.0 16.783383
69900.0 16.789238
69910.0 16.797246
69920.0 16.803697
69930.0 16.810740
69940.0 16.815050
69950.0 16.822542
69960.0 16.830418
69970.0 16.837644
69980.0 16.843272
69990.0 16.849733
70000.0 16.854564
70010.0 16.862276
70020.0 16.868945
70030.0 16.876163
70040.0 16.882396
70050.0 16.889138
70060.0 16.894848
70070.0 16.901224
70080.0 16.909025
70090.0 16.915951
70100.0 16.923247
70110.0 16.930437
70120.0 16.936719
70130.0 16.943513
70140.0 16.949464
70150.0 16.957091
70160.0 16.962376
70170.0 16.968069
70180.0 16.972739
70190.0 16.978819
70200.0 16.984223
70210.0 16.989072
70220.0 16.993220
70230.0 16.998851
70240.0 17.004249
70250.0 17.011057
70260.0 17.016351
70270.0 17.021314
70280.0 17.026005
70290.0 17.030901
70300.0 17.035623
70310.0 17.040366
70320.0 17.046029
70330.0 17.050762
70340.0 17.057516
70350.0 17.065864
70360.0 17.072224
70370.0 17.078897
70380.0 17.084829
70390.0 17.090723
70400.0 17.097350
70410.0 17.103224
70420.0 17.110345
70430.0 17.117806
70440.0 17.126113
70450.0 17.134372
70460.0 17.143458
70470.0 17.149531
70480.0 17.156925
70490.0 17.162939
70500.0 17.167030
70510.0 17.171551
70520.0 17.176370
70530.0 17.180951
70540.0 17.187953
70550.0 17.193668
70560.0 17.198736
70570.0 17.205370
70580.0 17.212358
70590.0 17.217449
70600.0 17.224644
70610.0 17.232956
70620.0 17.239798
70630.0 17.247688
70640.0 17.256394
70650.0 17.264260
70660.0 17.272645
70670.0 17.280965
70680.0 17.289511
70690.0 17.298642
70700.0 17.306893
70710.0 17.314310
70720.0 17.322428
70730.0 17.330419
70740.0 17.337274
70750.0 17.344277
70760.0 17.350111
70770.0 17.356170
70780.0 17.359685
70790.0 17.365399
70800.0 17.371997
70810.0 17.378682
70820.0 17.384814
70830.0 17.391921
70840.0 17.398046
70850.0 17.402788
70860.0 17.408355
70870.0 17.413280
70880.0 17.419681
70890.0 17.426344
70900.0 17.432463
70910.0 17.437135
70920.0 17.442716
70930.0 17.447719
70940.0 17.453024
70950.0 17.460022
70960.0 17.464601
70970.0 17.468594
70980.0 17.473757
70990.0 17.479175
71000.0 17.486829
71010.0 17.495010
71020.0 17.502777
71030.0 17.510879
71040.0 17.519150
71050.0 17.525934
71060.0 17.532574
71070.0 17.537715
71080.0 17.545717
71090.0 17.552073
71100.0 17.559037
71110.0 17.567181
71120.0 17.575855
71130.0 17.581162
71140.0 17.588216
71150.0 17.595985
71160.0 17.602729
71170.0 17.610255
71180.0 17.618269
71190.0 17.627201
71200.0 17.635010
71210.0 17.644681
71220.0 17.655208
71230.0 17.663837
71240.0 17.673095
71250.0 17.682688
71260.0 17.692440
71270.0 17.702978
71280.0 17.713358
71290.0 17.725080
71300.0 17.736556
71310.0 17.747014
71320.0 17.755180
71330.0 17.765472
71340.0 17.774274
71350.0 17.781292
71360.0 17.789124
71370.0 17.797083
71380.0 17.806430
71390.0 17.813317
71400.0 17.822330
71410.0 17.830277
71420.0 17.839692
71430.0 17.847889
71440.0 17.854890
71450.0 17.864208
71460.0 17.872448
71470.0 17.880040
71480.0 17.885867
71490.0 17.893245
71500.0 17.899482
71510.0 17.907928
71520.0 17.914506
71530.0 17.921235
71540.0 17.931293
71550.0 17.938898
71560.0 17.948591
71570.0 17.957917
71580.0 17.967664
71590.0 17.977254
71600.0 17.985017
71610.0 17.993740
71620.0 18.002098
71630.0 18.011251
71640.0 18.020791
71650.0 18.028969
71660.0 18.039783
71670.0 18.048751
71680.0 18.058896
71690.0 18.069101
71700.0 18.078111
71710.0 18.086042
71720.0 18.094134
71730.0 18.101670
71740.0 18.111099
71750.0 18.120478
71760.0 18.129405
71770.0 18.139461
71780.0 18.147304
71790.0 18.156458
71800.0 18.165133
71810.0 18.174419
71820.0 18.182324
71830.0 18.192406
71840.0 18.200679
71850.0 18.208597
71860.0 18.217077
71870.0 18.225661
71880.0 18.234079
71890.0 18.243163
71900.0 18.250463
71910.0 18.258178
71920.0 18.267550
71930.0 18.276530
71940.0 18.284364
71950.0 18.291242
71960.0 18.298822
71970.0 18.304607
71980.0 18.311220
71990.0 18.314626
72000.0 18.318019
72010.0 18.322059
72020.0 18.323900
72030.0 18.324795
72040.0 18.328953
72050.0 18.332866
72060.0 18.337080
72070.0 18.338959
72080.0 18.339015
72090.0 18.338627
72100.0 18.336518
72110.0 18.334477
72120.0 18.333317
72130.0 18.331167
72140.0 18.329503
72150.0 18.327061
72160.0 18.326008
72170.0 18.323816
72180.0 18.322516
72190.0 18.322925
72200.0 18.322562
72210.0 18.321189
72220.0 18.320134
72230.0 18.318797
72240.0 18.316984
72250.0 18.316339
72260.0 18.317200
72270.0 18.315436
72280.0 18.313603
72290.0 18.312084
72300.0 18.309710
72310.0 18.306723
72320.0 18.305152
72330.0 18.304568
72340.0 18.304594
72350.0 18.304229
72360.0 18.303813
72370.0 18.301585
72380.0 18.300387
72390.0 18.298411
72400.0 18.297173
72410.0 18.296220
72420.0 18.295630
72430.0 18.294016
72440.0 18.291578
72450.0 18.289838
72460.0 18.287696
72470.0 18.286982
72480.0 18.285499
72490.0 18.284774
72500.0 18.281898
72510.0 18.280468
72520.0 18.279083
72530.0 18.276128
72540.0 18.274030
72550.0 18.271871
72560.0 18.270402
72570.0 18.268136
72580.0 18.265305
72590.0 18.263945
72600.0 18.262289
72610.0 18.260374
72620.0 18.258897
72630.0 18.256253
72640.0 18.254272
72650.0 18.251951
72660.0 18.250254
72670.0 18.250231
72680.0 18.248380
72690.0 18.245809
72700.0 18.243713
72710.0 18.241720
72720.0 18.239715
72730.0 18.238365
72740.0 18.236552
72750.0 18.234051
72760.0 18.232599
72770.0 18.229459
72780.0 18.227415
72790.0 18.225243
72800.0 18.223011
72810.0 18.224396
72820.0 18.225100
72830.0 18.227068
72840.0 18.227363
72850.0 18.226105
72860.0 18.224850
72870.0 18.225104
72880.0 18.224534
72890.0 18.225242
72900.0 18.225967
72910.0 18.225353
72920.0 18.225858
72930.0 18.225910
72940.0 18.225488
72950.0 18.226161
72960.0 18.224999
72970.0 18.225005
72980.0 18.224565
72990.0 18.221892
73000.0 18.220994
73010.0 18.221144
73020.0 18.222246
73030.0 18.223088
73040.0 18.223416
73050.0 18.223539
73060.0 18.223185
73070.0 18.219693
73080.0 18.219561
73090.0 18.219074
73100.0 18.218882
73110.0 18.218075
73120.0 18.217048
73130.0 18.218122
73140.0 18.217994
73150.0 18.220122
73160.0 18.222738
73170.0 18.223423
73180.0 18.225837
73190.0 18.226420
73200.0 18.227173
73210.0 18.229074
73220.0 18.230166
73230.0 18.229618
73240.0 18.230488
73250.0 18.232336
73260.0 18.232249
73270.0 18.235118
73280.0 18.237810
73290.0 18.239665
73300.0 18.241475
73310.0 18.244246
73320.0 18.246251
73330.0 18.246576
73340.0 18.248632
73350.0 18.249340
73360.0 18.249821
73370.0 18.249652
73380.0 18.248866
73390.0 18.247696
73400.0 18.245541
73410.0 18.244399
73420.0 18.240766
73430.0 18.239082
73440.0 18.237844
73450.0 18.235479
73460.0 18.234711
73470.0 18.233205
73480.0 18.230705
73490.0 18.229500
73500.0 18.227298
73510.0 18.226410
73520.0 18.225010
73530.0 18.222609
73540.0 18.220661
73550.0 18.218727
73560.0 18.217070
73570.0 18.215266
73580.0 18.213846
73590.0 18.212431
73600.0 18.210069
73610.0 18.208517
73620.0 18.207551
73630.0 18.205854
73640.0 18.203921
73650.0 18.202023
73660.0 18.199553
73670.0 18.195877
73680.0 18.194606
73690.0 18.194400
73700.0 18.193394
73710.0 18.192869
73720.0 18.191456
73730.0 18.190722
73740.0 18.188666
73750.0 18.185505
73760.0 18.182892
73770.0 18.181061
73780.0 18.179620
73790.0 18.176850
73800.0 18.174982
73810.0 18.172960
73820.0 18.170964
73830.0 18.169211
73840.0 18.169636
73850.0 18.169098
73860.0 18.168727
73870.0 18.169361
73880.0 18.170384
73890.0 18.169654
73900.0 18.169721
73910.0 18.168991
73920.0 18.167909
73930.0 18.164719
73940.0 18.163592
73950.0 18.162965
73960.0 18.163372
73970.0 18.164835
73980.0 18.167255
73990.0 18.169621
74000.0 18.170958
74010.0 18.172056
74020.0 18.173109
74030.0 18.172362
74040.0 18.172340
74050.0 18.172092
74060.0 18.173021
74070.0 18.172373
74080.0 18.172683
74090.0 18.173795
74100.0 18.174520
74110.0 18.176413
74120.0 18.179286
74130.0 18.180854
74140.0 18.182649
74150.0 18.184620
74160.0 18.186233
74170.0 18.188273
74180.0 18.190729
74190.0 18.195106
74200.0 18.197975
74210.0 18.201371
74220.0 18.203582
74230.0 18.207854
74240.0 18.211913
74250.0 18.216159
74260.0 18.220881
74270.0 18.224853
74280.0 18.228691
74290.0 18.231108
74300.0 18.236602
74310.0 18.241654
74320.0 18.245510
74330.0 18.250016
74340.0 18.252770
74350.0 18.256035
74360.0 18.258634
74370.0 18.262278
74380.0 18.264702
74390.0 18.265908
74400.0 18.266829
74410.0 18.267313
74420.0 18.265483
74430.0 18.266934
74440.0 18.265743
74450.0 18.267739
74460.0 18.269348
74470.0 18.269845
74480.0 18.271262
74490.0 18.270919
74500.0 18.270136
74510.0 18.270165
74520.0 18.272134
74530.0 18.272540
74540.0 18.274071
74550.0 18.274994
74560.0 18.277596
74570.0 18.279882
74580.0 18.283736
74590.0 18.286058
74600.0 18.290127
74610.0 18.293490
74620.0 18.296085
74630.0 18.296563
74640.0 18.296800
74650.0 18.297481
74660.0 18.299040
74670.0 18.299266
74680.0 18.298953
74690.0 18.299858
74700.0 18.299818
74710.0 18.298749
74720.0 18.298921
74730.0 18.298347
74740.0 18.297621
74750.0 18.298894
74760.0 18.299041
74770.0 18.298933
74780.0 18.297918
74790.0 18.298275
74800.0 18.298874
74810.0 18.299387
74820.0 18.297591
74830.0 18.295119
74840.0 18.292920
74850.0 18.290231
74860.0 18.288503
74870.0 18.287697
74880.0 18.286744
74890.0 18.285681
74900.0 18.284476
74910.0 18.283996
74920.0 18.283420
74930.0 18.282140
74940.0 18.281176
74950.0 18.281432
74960.0 18.282397
74970.0 18.282109
74980.0 18.280954
74990.0 18.281335
75000.0 18.279541
75010.0 18.279090
75020.0 18.278449
75030.0 18.277353
75040.0 18.276614
75050.0 18.274829
75060.0 18.274226
75070.0 18.274624
75080.0 18.275084
75090.0 18.274454
75100.0 18.272004
75110.0 18.272159
75120.0 18.271404
75130.0 18.269407
75140.0 18.268121
75150.0 18.266140
75160.0 18.265520
75170.0 18.264419
75180.0 18.263289
75190.0 18.259861
75200.0 18.256760
75210.0 18.253941
75220.0 18.254056
75230.0 18.251788
75240.0 18.250366
75250.0 18.249940
75260.0 18.249635
75270.0 18.247548
75280.0 18.246354
75290.0 18.247644
75300.0 18.247510
75310.0 18.248633
75320.0 18.249023
75330.0 18.249643
75340.0 18.249210
75350.0 18.248077
75360.0 18.247977
75370.0 18.245475
75380.0 18.244171
75390.0 18.242907
75400.0 18.240820
75410.0 18.239211
75420.0 18.237612
75430.0 18.236569
75440.0 18.235738
75450.0 18.233020
75460.0 18.231058
75470.0 18.229434
75480.0 18.228345
75490.0 18.225964
75500.0 18.223626
75510.0 18.221808
75520.0 18.220046
75530.0 18.218755
75540.0 18.216485
75550.0 18.215237
75560.0 18.214444
75570.0 18.213742
75580.0 18.212228
75590.0 18.211516
75600.0 18.209381
75610.0 18.207459
75620.0 18.205466
75630.0 18.203852
75640.0 18.201707
75650.0 18.200677
75660.0 18.199653
75670.0 18.197847
75680.0 18.195421
75690.0 18.193925
75700.0 18.191859
75710.0 18.189239
75720.0 18.188882
75730.0 18.186361
75740.0 18.184200
75750.0 18.181478
75760.0 18.180219
75770.0 18.177264
75780.0 18.175995
75790.0 18.173499
75800.0 18.171042
75810.0 18.170228
75820.0 18.168769
75830.0 18.168603
75840.0 18.166397
75850.0 18.165430
75860.0 18.165384
75870.0 18.165463
75880.0 18.165600
75890.0 18.167416
75900.0 18.167394
75910.0 18.169085
75920.0 18.170997
75930.0 18.173861
75940.0 18.175783
75950.0 18.178121
75960.0 18.179294
75970.0 18.179242
75980.0 18.179352
75990.0 18.180767
76000.0 18.181003
76010.0 18.182312
76020.0 18.184266
76030.0 18.184303
76040.0 18.186895
76050.0 18.188453
76060.0 18.189455
76070.0 18.191416
76080.0 18.190940
76090.0 18.190100
76100.0 18.191253
76110.0 18.192130
76120.0 18.193117
76130.0 18.193366
76140.0 18.192822
76150.0 18.193161
76160.0 18.193516
76170.0 18.193486
76180.0 18.192597
76190.0 18.191935
76200.0 18.192412
76210.0 18.191251
76220.0 18.191382
76230.0 18.190379
76240.0 18.188535
76250.0 18.186314
76260.0 18.184745
76270.0 18.184409
76280.0 18.182392
76290.0 18.182068
76300.0 18.181099
76310.0 18.178647
76320.0 18.176633
76330.0 18.175521
76340.0 18.173910
76350.0 18.172087
76360.0 18.169856
76370.0 18.168490
76380.0 18.165808
76390.0 18.163981
76400.0 18.162708
76410.0 18.160242
76420.0 18.157952
76430.0 18.155192
76440.0 18.153024
76450.0 18.150565
76460.0 18.147630
76470.0 18.145688
76480.0 18.145008
76490.0 18.144387
76500.0 18.140849
76510.0 18.140230
76520.0 18.138230
76530.0 18.137587
76540.0 18.135742
76550.0 18.134003
76560.0 18.132200
76570.0 18.129887
76580.0 18.129415
76590.0 18.127410
76600.0 18.126881
76610.0 18.124094
76620.0 18.122788
76630.0 18.120102
76640.0 18.118136
76650.0 18.117382
76660.0 18.117458
76670.0 18.116854
76680.0 18.116136
76690.0 18.113810
76700.0 18.112115
76710.0 18.108942
76720.0 18.108628
76730.0 18.106669
76740.0 18.106882
76750.0 18.105899
76760.0 18.104277
76770.0 18.102782
76780.0 18.100251
76790.0 18.097804
76800.0 18.094955
76810.0 18.093655
76820.0 18.093529
76830.0 18.092704
76840.0 18.091912
76850.0 18.090140
76860.0 18.088256
76870.0 18.087473
76880.0 18.085834
76890.0 18.084417
76900.0 18.081602
76910.0 18.079988
76920.0 18.079020
76930.0 18.077884
76940.0 18.078247
76950.0 18.078538
76960.0 18.077496
76970.0 18.076146
76980.0 18.074335
76990.0 18.073864
77000.0 18.074924
77010.0 18.072079
77020.0 18.073148
77030.0 18.074018
77040.0 18.075111
77050.0 18.076001
77060.0 18.076713
77070.0 18.075688
77080.0 18.074305
77090.0 18.073065
77100.0 18.071058
77110.0 18.068775
77120.0 18.068106
77130.0 18.067775
77140.0 18.066687
77150.0 18.064787
77160.0 18.064208
77170.0 18.062563
77180.0 18.062361
77190.0 18.060192
77200.0 18.058910
77210.0 18.056782
77220.0 18.055276
77230.0 18.052558
77240.0 18.049729
77250.0 18.047851
77260.0 18.046973
77270.0 18.044375
77280.0 18.042612
77290.0 18.039862
77300.0 18.037629
77310.0 18.036044
77320.0 18.034875
77330.0 18.032567
77340.0 18.030428
77350.0 18.028232
77360.0 18.027168
77370.0 18.025684
77380.0 18.024310
77390.0 18.021675
77400.0 18.019626
77410.0 18.018991
77420.0 18.018192
77430.0 18.017264
77440.0 18.016820
77450.0 18.015579
77460.0 18.014106
77470.0 18.012116
77480.0 18.010919
77490.0 18.009839
77500.0 18.007824
77510.0 18.008039
77520.0 18.010100
77530.0 18.010758
77540.0 18.012161
77550.0 18.012550
77560.0 18.011772
77570.0 18.012576
77580.0 18.012752
77590.0 18.012467
77600.0 18.010174
77610.0 18.008642
77620.0 18.008155
77630.0 18.005541
77640.0 18.003085
77650.0 18.001450
77660.0 18.000036
77670.0 17.998787
77680.0 17.997202
77690.0 17.994976
77700.0 17.993003
77710.0 17.991605
77720.0 17.989809
77730.0 17.988357
77740.0 17.986992
77750.0 17.985167
77760.0 17.982580
77770.0 17.980472
77780.0 17.979074
77790.0 17.976451
77800.0 17.974182
77810.0 17.971758
77820.0 17.971079
77830.0 17.971320
77840.0 17.969457
77850.0 17.969756
77860.0 17.969716
77870.0 17.967867
77880.0 17.966259
77890.0 17.963876
77900.0 17.963406
77910.0 17.961727
77920.0 17.959975
77930.0 17.958884
77940.0 17.957015
77950.0 17.954778
77960.0 17.953352
77970.0 17.952934
77980.0 17.952046
77990.0 17.952290
78000.0 17.952801
78010.0 17.952393
78020.0 17.952366
78030.0 17.952513
78040.0 17.951400
78050.0 17.950659
78060.0 17.948063
78070.0 17.946346
78080.0 17.946590
78090.0 17.945635
78100.0 17.946499
78110.0 17.948335
78120.0 17.948650
78130.0 17.948664
78140.0 17.949853
78150.0 17.950617
78160.0 17.950209
78170.0 17.948846
78180.0 17.948555
78190.0 17.947419
78200.0 17.947126
78210.0 17.946132
78220.0 17.945211
78230.0 17.943097
78240.0 17.940331
78250.0 17.938274
78260.0 17.936301
78270.0 17.933805
78280.0 17.933079
78290.0 17.930920
78300.0 17.930238
78310.0 17.928018
78320.0 17.926840
78330.0 17.925375
78340.0 17.924315
78350.0 17.922967
78360.0 17.921838
78370.0 17.919354
78380.0 17.917096
78390.0 17.914960
78400.0 17.913186
78410.0 17.911905
78420.0 17.910956
78430.0 17.909369
78440.0 17.907198
78450.0 17.906789
78460.0 17.906067
78470.0 17.905556
78480.0 17.905818
78490.0 17.905864
78500.0 17.906745
78510.0 17.906330
78520.0 17.907403
78530.0 17.908441
78540.0 17.910107
78550.0 17.909844
78560.0 17.910275
78570.0 17.910091
78580.0 17.910598
78590.0 17.910243
78600.0 17.910055
78610.0 17.907186
78620.0 17.906193
78630.0 17.905741
78640.0 17.906900
78650.0 17.908192
78660.0 17.910631
78670.0 17.912444
78680.0 17.913013
78690.0 17.914316
78700.0 17.916347
78710.0 17.916608
78720.0 17.916707
78730.0 17.915280
78740.0 17.913919
78750.0 17.913736
78760.0 17.913796
78770.0 17.914820
78780.0 17.917627
78790.0 17.920017
78800.0 17.922296
78810.0 17.923680
78820.0 17.925415
78830.0 17.928262
78840.0 17.930664
78850.0 17.933002
78860.0 17.935452
78870.0 17.938277
78880.0 17.941332
78890.0 17.943830
78900.0 17.944890
78910.0 17.946264
78920.0 17.945728
78930.0 17.945023
78940.0 17.943796
78950.0 17.943827
78960.0 17.945473
78970.0 17.944736
78980.0 17.943313
78990.0 17.942091
79000.0 17.941497
79010.0 17.939897
79020.0 17.939085
79030.0 17.936547
79040.0 17.935389
79050.0 17.932887
79060.0 17.930670
79070.0 17.929129
79080.0 17.927359
79090.0 17.925808
79100.0 17.924198
79110.0 17.921848
79120.0 17.919164
79130.0 17.917416
79140.0 17.915572
79150.0 17.914670
79160.0 17.912643
79170.0 17.909684
79180.0 17.907900
79190.0 17.907189
79200.0 17.905146
79210.0 17.903876
79220.0 17.903036
79230.0 17.901424
79240.0 17.900153
79250.0 17.898985
79260.0 17.898059
79270.0 17.896785
79280.0 17.896513
79290.0 17.894985
79300.0 17.893879
79310.0 17.893174
79320.0 17.893197
79330.0 17.893580
79340.0 17.893448
79350.0 17.893706
79360.0 17.893404
79370.0 17.893485
79380.0 17.892610
79390.0 17.892184
79400.0 17.891771
79410.0 17.891447
79420.0 17.891115
79430.0 17.891091
79440.0 17.889029
79450.0 17.889013
79460.0 17.888795
79470.0 17.888114
79480.0 17.886074
79490.0 17.883989
79500.0 17.881869
79510.0 17.881384
79520.0 17.880673
79530.0 17.880200
79540.0 17.879720
79550.0 17.878326
79560.0 17.877052
79570.0 17.874795
79580.0 17.873654
79590.0 17.870291
79600.0 17.867713
79610.0 17.866383
79620.0 17.865304
79630.0 17.862786
79640.0 17.861321
79650.0 17.859861
79660.0 17.858316
79670.0 17.857010
79680.0 17.857437
79690.0 17.858582
79700.0 17.857535
79710.0 17.856622
79720.0 17.854802
79730.0 17.853069
79740.0 17.851767
79750.0 17.848849
79760.0 17.847638
79770.0 17.848039
79780.0 17.847147
79790.0 17.846827
79800.0 17.846339
79810.0 17.846232
79820.0 17.846206
79830.0 17.847813
79840.0 17.848530
79850.0 17.850261
79860.0 17.852503
79870.0 17.853680
79880.0 17.853844
79890.0 17.854944
79900.0 17.857081
79910.0 17.859764
79920.0 17.862996
79930.0 17.867806
79940.0 17.870990
79950.0 17.874802
79960.0 17.876937
79970.0 17.878528
79980.0 17.879373
79990.0 17.880216
80000.0 17.881505
80010.0 17.881867
80020.0 17.883885
80030.0 17.884461
80040.0 17.884930
80050.0 17.885238
80060.0 17.885095
80070.0 17.885136
80080.0 17.884813
80090.0 17.884937
80100.0 17.883982
80110.0 17.884105
80120.0 17.883293
80130.0 17.882709
80140.0 17.881109
80150.0 17.879695
80160.0 17.878106
80170.0 17.877830
80180.0 17.876326
80190.0 17.876083
80200.0 17.878445
80210.0 17.881277
80220.0 17.882675
80230.0 17.883889
80240.0 17.885161
80250.0 17.886370
80260.0 17.887186
80270.0 17.886744
80280.0 17.887268
80290.0 17.886800
80300.0 17.887130
80310.0 17.887202
80320.0 17.887075
80330.0 17.888029
80340.0 17.887597
80350.0 17.885614
80360.0 17.883654
80370.0 17.881750
80380.0 17.881582
80390.0 17.879479
80400.0 17.879047
80410.0 17.877529
80420.0 17.875591
80430.0 17.874063
80440.0 17.872098
80450.0 17.870824
80460.0 17.869745
80470.0 17.870801
80480.0 17.871459
80490.0 17.870822
80500.0 17.870766
80510.0 17.872220
80520.0 17.872400
80530.0 17.873081
80540.0 17.874175
80550.0 17.875971
80560.0 17.876564
80570.0 17.875248
80580.0 17.874449
80590.0 17.873988
80600.0 17.872356
80610.0 17.870294
80620.0 17.869003
80630.0 17.867293
80640.0 17.864864
80650.0 17.861334
80660.0 17.859518
80670.0 17.859046
80680.0 17.858953
80690.0 17.856493
80700.0 17.855741
80710.0 17.853732
80720.0 17.852981
80730.0 17.851089
80740.0 17.848839
80750.0 17.847294
80760.0 17.845976
80770.0 17.844751
80780.0 17.843438
80790.0 17.841705
80800.0 17.840015
80810.0 17.838796
80820.0 17.837509
80830.0 17.837004
80840.0 17.834992
80850.0 17.833874
80860.0 17.832545
80870.0 17.830619
80880.0 17.828338
80890.0 17.826191
80900.0 17.824232
80910.0 17.822976
80920.0 17.821909
80930.0 17.821415
80940.0 17.820364
80950.0 17.818906
80960.0 17.818273
80970.0 17.816180
80980.0 17.814902
80990.0 17.812891
81000.0 17.811102
81010.0 17.809702
81020.0 17.808367
81030.0 17.806129
81040.0 17.804510
81050.0 17.803716
81060.0 17.802626
81070.0 17.801937
81080.0 17.800732
81090.0 17.800895
81100.0 17.799481
81110.0 17.799005
81120.0 17.798024
81130.0 17.797154
81140.0 17.795025
81150.0 17.793830
81160.0 17.793005
81170.0 17.790324
81180.0 17.789008
81190.0 17.786726
81200.0 17.784701
81210.0 17.782320
81220.0 17.782917
81230.0 17.783476
81240.0 17.783201
81250.0 17.782733
81260.0 17.782478
81270.0 17.783009
81280.0 17.783749
81290.0 17.784735
81300.0 17.786125
81310.0 17.787261
81320.0 17.788932
81330.0 17.789019
81340.0 17.790238
81350.0 17.790916
81360.0 17.790725
81370.0 17.790207
81380.0 17.790723
81390.0 17.792007
81400.0 17.791792
81410.0 17.794569
81420.0 17.796760
81430.0 17.797649
81440.0 17.798668
81450.0 17.799818
81460.0 17.799353
81470.0 17.800992
81480.0 17.802470
81490.0 17.804301
81500.0 17.803102
81510.0 17.806025
81520.0 17.807905
81530.0 17.809351
81540.0 17.810487
81550.0 17.812917
81560.0 17.814533
81570.0 17.816466
81580.0 17.819539
81590.0 17.822572
81600.0 17.824189
81610.0 17.826690
81620.0 17.827463
81630.0 17.829154
81640.0 17.831805
81650.0 17.833110
81660.0 17.835788
81670.0 17.838478
81680.0 17.841087
81690.0 17.841632
81700.0 17.842932
81710.0 17.843143
81720.0 17.843463
81730.0 17.843654
81740.0 17.843988
81750.0 17.844307
81760.0 17.843718
81770.0 17.841795
81780.0 17.840356
81790.0 17.839273
81800.0 17.837643
81810.0 17.835298
81820.0 17.832111
81830.0 17.831468
81840.0 17.830618
81850.0 17.828701
81860.0 17.826989
81870.0 17.825847
81880.0 17.824432
81890.0 17.821662
81900.0 17.819353
81910.0 17.817758
81920.0 17.815498
81930.0 17.814964
81940.0 17.814303
81950.0 17.813073
81960.0 17.810582
81970.0 17.809150
81980.0 17.807912
81990.0 17.805962
82000.0 17.804383
82010.0 17.802386
82020.0 17.799082
82030.0 17.797449
82040.0 17.796142
82050.0 17.793913
82060.0 17.792410
82070.0 17.792099
82080.0 17.791077
82090.0 17.791692
82100.0 17.792028
82110.0 17.791735
82120.0 17.791416
82130.0 17.790892
82140.0 17.791172
82150.0 17.791450
82160.0 17.792118
82170.0 17.793454
82180.0 17.793835
82190.0 17.793056
82200.0 17.792863
82210.0 17.790801
82220.0 17.789319
82230.0 17.787503
82240.0 17.786051
82250.0 17.784826
82260.0 17.783837
82270.0 17.782092
82280.0 17.780493
82290.0 17.779468
82300.0 17.777101
82310.0 17.775370
82320.0 17.772983
82330.0 17.771165
82340.0 17.769045
82350.0 17.766469
82360.0 17.765377
82370.0 17.764341
82380.0 17.762212
82390.0 17.760733
82400.0 17.761027
82410.0 17.760112
82420.0 17.758432
82430.0 17.758821
82440.0 17.758793
82450.0 17.758690
82460.0 17.758035
82470.0 17.758389
82480.0 17.757980
82490.0 17.758146
82500.0 17.759187
82510.0 17.760944
82520.0 17.761352
82530.0 17.764748
82540.0 17.766255
82550.0 17.767821
82560.0 17.769107
82570.0 17.768115
82580.0 17.769913
82590.0 17.771534
82600.0 17.773644
82610.0 17.775135
82620.0 17.776575
82630.0 17.777067
82640.0 17.776677
82650.0 17.776587
82660.0 17.776615
82670.0 17.775034
82680.0 17.774941
82690.0 17.773942
82700.0 17.773063
82710.0 17.770306
82720.0 17.769302
82730.0 17.768181
82740.0 17.766851
82750.0 17.764737
82760.0 17.763415
82770.0 17.762039
82780.0 17.759784
82790.0 17.758756
82800.0 17.758568
82810.0 17.758041
82820.0 17.758000
82830.0 17.757417
82840.0 17.757740
82850.0 17.756991
82860.0 17.754014
82870.0 17.750169
82880.0 17.749723
82890.0 17.747484
82900.0 17.746219
82910.0 17.744746
82920.0 17.743378
82930.0 17.742806
82940.0 17.740518
82950.0 17.738338
82960.0 17.737277
82970.0 17.735838
82980.0 17.735631
82990.0 17.735095
83000.0 17.734464
83010.0 17.733096
83020.0 17.731057
83030.0 17.730223
83040.0 17.728275
83050.0 17.727782
83060.0 17.725003
83070.0 17.724376
83080.0 17.723971
83090.0 17.723518
83100.0 17.722954
83110.0 17.722804
83120.0 17.723410
83130.0 17.723297
83140.0 17.723638
83150.0 17.723078
83160.0 17.722288
83170.0 17.720759
83180.0 17.719340
83190.0 17.718313
83200.0 17.717197
83210.0 17.714374
83220.0 17.714378
83230.0 17.715044
83240.0 17.715926
83250.0 17.717011
83260.0 17.718030
83270.0 17.717617
83280.0 17.716725
83290.0 17.717456
83300.0 17.718160
83310.0 17.717286
83320.0 17.715325
83330.0 17.714087
83340.0 17.712041
83350.0 17.709871
83360.0 17.709497
83370.0 17.707415
83380.0 17.706869
83390.0 17.706114
83400.0 17.705741
83410.0 17.704200
83420.0 17.702999
83430.0 17.701761
83440.0 17.699493
83450.0 17.698477
83460.0 17.697627
83470.0 17.696133
83480.0 17.694600
83490.0 17.692848
83500.0 17.691227
83510.0 17.690097
83520.0 17.688522
83530.0 17.686762
83540.0 17.686088
83550.0 17.685722
83560.0 17.683397
83570.0 17.681916
83580.0 17.679888
83590.0 17.678062
83600.0 17.678043
83610.0 17.676978
83620.0 17.675913
83630.0 17.677108
83640.0 17.675129
83650.0 17.676004
83660.0 17.674943
83670.0 17.673866
83680.0 17.673044
83690.0 17.670946
83700.0 17.668829
83710.0 17.668083
83720.0 17.666687
83730.0 17.665739
83740.0 17.664196
83750.0 17.660729
83760.0 17.659493
83770.0 17.660016
83780.0 17.661385
83790.0 17.660209
83800.0 17.659429
83810.0 17.658442
83820.0 17.657129
83830.0 17.656402
83840.0 17.655806
83850.0 17.655881
83860.0 17.654925
83870.0 17.655488
83880.0 17.657481
83890.0 17.658797
83900.0 17.658997
83910.0 17.659795
83920.0 17.660091
83930.0 17.660479
83940.0 17.659557
83950.0 17.658885
83960.0 17.658236
83970.0 17.658079
83980.0 17.657070
83990.0 17.656202
84000.0 17.656566
84010.0 17.656886
84020.0 17.654486
84030.0 17.653629
84040.0 17.652718
84050.0 17.650530
84060.0 17.649415
84070.0 17.647277
84080.0 17.645801
84090.0 17.644167
84100.0 17.642685
84110.0 17.640031
84120.0 17.639982
84130.0 17.641094
84140.0 17.641165
84150.0 17.640821
84160.0 17.640088
84170.0 17.640757
84180.0 17.641579
84190.0 17.640639
84200.0 17.638351
84210.0 17.636731
84220.0 17.635969
84230.0 17.634784
84240.0 17.633414
84250.0 17.631380
84260.0 17.631714
84270.0 17.631755
84280.0 17.631402
84290.0 17.630892
84300.0 17.630106
84310.0 17.628314
84320.0 17.626925
84330.0 17.625949
84340.0 17.623822
84350.0 17.622624
84360.0 17.621487
84370.0 17.619369
84380.0 17.617844
84390.0 17.616246
84400.0 17.615119
84410.0 17.613162
84420.0 17.611772
84430.0 17.610535
84440.0 17.608743
84450.0 17.605899
84460.0 17.604798
84470.0 17.603140
84480.0 17.602448
84490.0 17.602797
84500.0 17.602532
84510.0 17.601842
84520.0 17.600740
84530.0 17.598521
84540.0 17.596670
84550.0 17.595583
84560.0 17.594231
84570.0 17.592498
84580.0 17.591528
84590.0 17.590481
84600.0 17.588167
84610.0 17.586164
84620.0 17.584403
84630.0 17.582593
84640.0 17.580818
84650.0 17.579912
84660.0 17.578285
84670.0 17.577786
84680.0 17.576163
84690.0 17.574626
84700.0 17.571567
84710.0 17.570642
84720.0 17.570741
84730.0 17.570426
84740.0 17.570481
84750.0 17.569843
84760.0 17.568854
84770.0 17.566625
84780.0 17.565682
84790.0 17.565401
84800.0 17.563589
84810.0 17.563799
84820.0 17.563193
84830.0 17.561123
84840.0 17.560385
84850.0 17.560095
84860.0 17.559889
84870.0 17.559649
84880.0 17.560073
84890.0 17.561826
84900.0 17.563916
84910.0 17.565084
84920.0 17.565513
84930.0 17.568021
84940.0 17.569569
84950.0 17.572281
84960.0 17.574451
84970.0 17.577150
84980.0 17.579461
84990.0 17.581654
85000.0 17.584259
85010.0 17.587100
85020.0 17.589891
85030.0 17.592598
85040.0 17.594817
85050.0 17.599090
85060.0 17.603489
85070.0 17.607810
85080.0 17.610253
85090.0 17.614479
85100.0 17.618687
85110.0 17.622476
85120.0 17.625628
85130.0 17.629292
85140.0 17.633044
85150.0 17.637438
85160.0 17.641943
85170.0 17.644845
85180.0 17.650626
85190.0 17.655860
85200.0 17.661881
85210.0 17.667194
85220.0 17.672594
85230.0 17.678372
85240.0 17.685269
85250.0 17.692162
85260.0 17.697590
85270.0 17.703529
85280.0 17.709602
85290.0 17.715677
85300.0 17.721609
85310.0 17.726603
85320.0 17.734034
85330.0 17.742265
85340.0 17.748789
85350.0 17.756742
85360.0 17.765079
85370.0 17.773408
85380.0 17.780174
85390.0 17.789365
85400.0 17.798436
85410.0 17.806403
85420.0 17.813736
85430.0 17.820968
85440.0 17.828742
85450.0 17.836329
85460.0 17.845191
85470.0 17.854168
85480.0 17.862924
85490.0 17.872601
85500.0 17.883533
85510.0 17.893903
85520.0 17.904534
85530.0 17.915309
85540.0 17.924308
85550.0 17.934436
85560.0 17.944164
85570.0 17.955232
85580.0 17.964668
85590.0 17.976096
85600.0 17.985885
85610.0 17.996607
85620.0 18.007903
85630.0 18.019542
85640.0 18.030747
85650.0 18.040010
85660.0 18.052284
85670.0 18.064093
85680.0 18.077972
85690.0 18.089452
85700.0 18.101116
85710.0 18.113492
85720.0 18.124645
85730.0 18.136651
85740.0 18.148331
85750.0 18.159273
85760.0 18.169850
85770.0 18.180117
85780.0 18.190217
85790.0 18.199329
85800.0 18.208069
85810.0 18.217271
85820.0 18.228296
85830.0 18.238926
85840.0 18.248662
85850.0 18.258885
85860.0 18.268838
85870.0 18.277476
85880.0 18.286093
85890.0 18.295259
85900.0 18.305371
85910.0 18.314528
85920.0 18.322736
85930.0 18.330315
85940.0 18.336874
85950.0 18.344959
85960.0 18.351630
85970.0 18.358475
85980.0 18.363205
85990.0 18.369410
86000.0 18.375638
86010.0 18.382028
86020.0 18.387712
86030.0 18.393787
86040.0 18.399104
86050.0 18.405479
86060.0 18.410896
86070.0 18.418470
86080.0 18.424181
86090.0 18.430055
86100.0 18.434595
86110.0 18.438710
86120.0 18.443311
86130.0 18.446918
86140.0 18.450798
86150.0 18.454318
86160.0 18.457298
86170.0 18.459352
86180.0 18.463337
86190.0 18.467171
86200.0 18.469222
86210.0 18.471843
86220.0 18.475527
86230.0 18.478706
86240.0 18.482039
86250.0 18.484789
86260.0 18.488920
86270.0 18.492437
86280.0 18.496005
86290.0 18.497473
86300.0 18.501270
86310.0 18.504678
86320.0 18.507716
86330.0 18.510690
86340.0 18.513175
86350.0 18.516063
86360.0 18.518816
86370.0 18.520419
86380.0 18.521020
86390.0 18.523946
86400.0 18.526230
86400.0 18.526230
