# Tempo(s) E[N]
10.0 3.880686
20.0 7.311423
30.0 8.851253
40.0 7.872400
50.0 6.949107
60.0 6.483163
70.0 7.342827
80.0 8.822210
90.0 9.592640
100.0 10.536298
110.0 11.707823
120.0 13.119621
130.0 14.391290
140.0 15.719952
150.0 16.651479
160.0 17.650840
170.0 18.305412
180.0 18.746982
190.0 18.902891
200.0 18.680320
210.0 18.611626
220.0 18.540073
230.0 18.290391
240.0 17.947285
250.0 17.701048
260.0 17.481207
270.0 17.181163
280.0 16.830288
290.0 16.287014
300.0 15.889440
310.0 15.443914
320.0 14.995260
330.0 14.557471
340.0 14.317548
350.0 14.076932
360.0 13.767158
370.0 13.460130
380.0 13.168286
390.0 12.970870
400.0 12.911633
410.0 12.890133
420.0 12.857717
430.0 12.799660
440.0 12.680680
450.0 12.522129
460.0 12.403250
470.0 12.310322
480.0 12.239327
490.0 12.322227
500.0 12.434174
510.0 12.499581
520.0 12.537639
530.0 12.438589
540.0 12.350669
550.0 12.245426
560.0 12.089074
570.0 11.899289
580.0 11.709998
590.0 11.520209
600.0 11.368825
610.0 11.258705
620.0 11.148388
630.0 10.985254
640.0 10.848014
650.0 10.691231
660.0 10.551541
670.0 10.483885
680.0 10.338066
690.0 10.194963
700.0 10.074267
710.0 10.018603
720.0 9.988434
730.0 10.050815
740.0 10.056735
750.0 10.012437
760.0 9.900637
770.0 9.784830
780.0 9.722581
790.0 9.621527
800.0 9.510095
810.0 9.470284
820.0 9.501239
830.0 9.543156
840.0 9.535220
850.0 9.443329
860.0 9.362907
870.0 9.299439
880.0 9.366428
890.0 9.477284
900.0 9.558803
910.0 9.667711
920.0 9.749417
930.0 9.799210
940.0 9.818497
950.0 9.849343
960.0 9.884668
970.0 9.914333
980.0 9.976237
990.0 10.041700
1000.0 10.122273
1010.0 10.268781
1020.0 10.458904
1030.0 10.673443
1040.0 10.911199
1050.0 11.135656
1060.0 11.326110
1070.0 11.531064
1080.0 11.683756
1090.0 11.773888
1100.0 11.842480
1110.0 11.890623
1120.0 11.898193
1130.0 11.846191
1140.0 11.761374
1150.0 11.679184
1160.0 11.609837
1170.0 11.551236
1180.0 11.519865
1190.0 11.515546
1200.0 11.530267
1210.0 11.500679
1220.0 11.457590
1230.0 11.401735
1240.0 11.330343
1250.0 11.317287
1260.0 11.339943
1270.0 11.380815
1280.0 11.406048
1290.0 11.466544
1300.0 11.585623
1310.0 11.691044
1320.0 11.777327
1330.0 11.835264
1340.0 11.839442
1350.0 11.820039
1360.0 11.773394
1370.0 11.728776
1380.0 11.717927
1390.0 11.714299
1400.0 11.697926
1410.0 11.625400
1420.0 11.558002
1430.0 11.523347
1440.0 11.509443
1450.0 11.529177
1460.0 11.561884
1470.0 11.613206
1480.0 11.711708
1490.0 11.827300
1500.0 11.952262
1510.0 12.087150
1520.0 12.241078
1530.0 12.427771
1540.0 12.602103
1550.0 12.783705
1560.0 13.000713
1570.0 13.233091
1580.0 13.441202
1590.0 13.649722
1600.0 13.882560
1610.0 14.120648
1620.0 14.349238
1630.0 14.615130
1640.0 14.873094
1650.0 15.108816
1660.0 15.352980
1670.0 15.570043
1680.0 15.770604
1690.0 15.959474
1700.0 16.120386
1710.0 16.288391
1720.0 16.463428
1730.0 16.629961
1740.0 16.816018
1750.0 16.998567
1760.0 17.159868
1770.0 17.312775
1780.0 17.484767
1790.0 17.670603
1800.0 17.874227
1810.0 18.077523
1820.0 18.269870
1830.0 18.449455
1840.0 18.641525
1850.0 18.838529
1860.0 19.047903
1870.0 19.256807
1880.0 19.434474
1890.0 19.579349
1900.0 19.704922
1910.0 19.815795
1920.0 19.904204
1930.0 20.023275
1940.0 20.174983
1950.0 20.329270
1960.0 20.502682
1970.0 20.689567
1980.0 20.840849
1990.0 20.972014
2000.0 21.091004
2010.0 21.232228
2020.0 21.343312
2030.0 21.471735
2040.0 21.584344
2050.0 21.692584
2060.0 21.779027
2070.0 21.861241
2080.0 21.911297
2090.0 21.983636
2100.0 22.074404
2110.0 22.150519
2120.0 22.200006
2130.0 22.267507
2140.0 22.342872
2150.0 22.432683
2160.0 22.514558
2170.0 22.584226
2180.0 22.623346
2190.0 22.653037
2200.0 22.685752
2210.0 22.728973
2220.0 22.801980
2230.0 22.852246
2240.0 22.882371
2250.0 22.903116
2260.0 22.919302
2270.0 22.929209
2280.0 22.935603
2290.0 22.933118
2300.0 22.922341
2310.0 22.906701
2320.0 22.905078
2330.0 22.906995
2340.0 22.930016
2350.0 22.907584
2360.0 22.858399
2370.0 22.786697
2380.0 22.722845
2390.0 22.656154
2400.0 22.593208
2410.0 22.542361
2420.0 22.492353
2430.0 22.433441
2440.0 22.378235
2450.0 22.319810
2460.0 22.239017
2470.0 22.151690
2480.0 22.068153
2490.0 21.998169
2500.0 21.931958
2510.0 21.872101
2520.0 21.798508
2530.0 21.721836
2540.0 21.640349
2550.0 21.572991
2560.0 21.495927
2570.0 21.416521
2580.0 21.335623
2590.0 21.254892
2600.0 21.177051
2610.0 21.111190
2620.0 21.067932
2630.0 21.017390
2640.0 20.965341
2650.0 20.916976
2660.0 20.880773
2670.0 20.826543
2680.0 20.774101
2690.0 20.711605
2700.0 20.647097
2710.0 20.579110
2720.0 20.522578
2730.0 20.458226
2740.0 20.384070
2750.0 20.317483
2760.0 20.267270
2770.0 20.215915
2780.0 20.158464
2790.0 20.111311
2800.0 20.047471
2810.0 19.982797
2820.0 19.919079
2830.0 19.851865
2840.0 19.795103
2850.0 19.732019
2860.0 19.676169
2870.0 19.625158
2880.0 19.565598
2890.0 19.506603
2900.0 19.448422
2910.0 19.390833
2920.0 19.357378
2930.0 19.327632
2940.0 19.309181
2950.0 19.290358
2960.0 19.281529
2970.0 19.275611
2980.0 19.267453
2990.0 19.229494
3000.0 19.220994
3010.0 19.225048
3020.0 19.229472
3030.0 19.228222
3040.0 19.208333
3050.0 19.189132
3060.0 19.167041
3070.0 19.129271
3080.0 19.086387
3090.0 19.053133
3100.0 19.001619
3110.0 18.953657
3120.0 18.924915
3130.0 18.882131
3140.0 18.832722
3150.0 18.777615
3160.0 18.728246
3170.0 18.704566
3180.0 18.700580
3190.0 18.701631
3200.0 18.704876
3210.0 18.704060
3220.0 18.682129
3230.0 18.650644
3240.0 18.618546
3250.0 18.589940
3260.0 18.577792
3270.0 18.568684
3280.0 18.571255
3290.0 18.575841
3300.0 18.583869
3310.0 18.605625
3320.0 18.609271
3330.0 18.588349
3340.0 18.556417
3350.0 18.536355
3360.0 18.493943
3370.0 18.440713
3380.0 18.394498
3390.0 18.343832
3400.0 18.296104
3410.0 18.244639
3420.0 18.191652
3430.0 18.140576
3440.0 18.095897
3450.0 18.061522
3460.0 18.038299
3470.0 18.027275
3480.0 18.026797
3490.0 18.029609
3500.0 18.032894
3510.0 18.033635
3520.0 18.038679
3530.0 18.035952
3540.0 18.037459
3550.0 18.034084
3560.0 18.025801
3570.0 18.008355
3580.0 17.998357
3590.0 17.992757
3600.0 17.958266
3610.0 17.910074
3620.0 17.871826
3630.0 17.838048
3640.0 17.808844
3650.0 17.768798
3660.0 17.723979
3670.0 17.676492
3680.0 17.629384
3690.0 17.583589
3700.0 17.544109
3710.0 17.506308
3720.0 17.465842
3730.0 17.422578
3740.0 17.378936
3750.0 17.346357
3760.0 17.315079
3770.0 17.272265
3780.0 17.237861
3790.0 17.205837
3800.0 17.181329
3810.0 17.156429
3820.0 17.132761
3830.0 17.096599
3840.0 17.071199
3850.0 17.050897
3860.0 17.045848
3870.0 17.060539
3880.0 17.087961
3890.0 17.109444
3900.0 17.126303
3910.0 17.144960
3920.0 17.158970
3930.0 17.165059
3940.0 17.174245
3950.0 17.177506
3960.0 17.176371
3970.0 17.171888
3980.0 17.184199
3990.0 17.199033
4000.0 17.202488
4010.0 17.200672
4020.0 17.196246
4030.0 17.182984
4040.0 17.160316
4050.0 17.122773
4060.0 17.086186
4070.0 17.057209
4080.0 17.017882
4090.0 16.983636
4100.0 16.954809
4110.0 16.933459
4120.0 16.906490
4130.0 16.866753
4140.0 16.828353
4150.0 16.795979
4160.0 16.773110
4170.0 16.759436
4180.0 16.738122
4190.0 16.714850
4200.0 16.691283
4210.0 16.658526
4220.0 16.620369
4230.0 16.586319
4240.0 16.558818
4250.0 16.539914
4260.0 16.521424
4270.0 16.492975
4280.0 16.458566
4290.0 16.426706
4300.0 16.394608
4310.0 16.357258
4320.0 16.325144
4330.0 16.305298
4340.0 16.294516
4350.0 16.296137
4360.0 16.301437
4370.0 16.317733
4380.0 16.323643
4390.0 16.319626
4400.0 16.307553
4410.0 16.298996
4420.0 16.308829
4430.0 16.327858
4440.0 16.364373
4450.0 16.411307
4460.0 16.463332
4470.0 16.523102
4480.0 16.585221
4490.0 16.646573
4500.0 16.695868
4510.0 16.750768
4520.0 16.805570
4530.0 16.857360
4540.0 16.902768
4550.0 16.931765
4560.0 16.951163
4570.0 16.973637
4580.0 17.010214
4590.0 17.060914
4600.0 17.115294
4610.0 17.159253
4620.0 17.193927
4630.0 17.214604
4640.0 17.232651
4650.0 17.248086
4660.0 17.258211
4670.0 17.273297
4680.0 17.297085
4690.0 17.320086
4700.0 17.348424
4710.0 17.380707
4720.0 17.409075
4730.0 17.428459
4740.0 17.439575
4750.0 17.449050
4760.0 17.450477
4770.0 17.442897
4780.0 17.417638
4790.0 17.386574
4800.0 17.353899
4810.0 17.323140
4820.0 17.297330
4830.0 17.277553
4840.0 17.257379
4850.0 17.224374
4860.0 17.191005
4870.0 17.157992
4880.0 17.124565
4890.0 17.093458
4900.0 17.068666
4910.0 17.054698
4920.0 17.040080
4930.0 17.024720
4940.0 17.000647
4950.0 16.982308
4960.0 16.949210
4970.0 16.916473
4980.0 16.883709
4990.0 16.857973
5000.0 16.824872
5010.0 16.794906
5020.0 16.765485
5030.0 16.749135
5040.0 16.731120
5050.0 16.702432
5060.0 16.674667
5070.0 16.643433
5080.0 16.611528
5090.0 16.588376
5100.0 16.563614
5110.0 16.538686
5120.0 16.509551
5130.0 16.483403
5140.0 16.463805
5150.0 16.449980
5160.0 16.435474
5170.0 16.410023
5180.0 16.382829
5190.0 16.360609
5200.0 16.345344
5210.0 16.324724
5220.0 16.305812
5230.0 16.288158
5240.0 16.280644
5250.0 16.280845
5260.0 16.277423
5270.0 16.263022
5280.0 16.256972
5290.0 16.258164
5300.0 16.252275
5310.0 16.227430
5320.0 16.210722
5330.0 16.194165
5340.0 16.175253
5350.0 16.159352
5360.0 16.155061
5370.0 16.143083
5380.0 16.135015
5390.0 16.116135
5400.0 16.088773
5410.0 16.065544
5420.0 16.053469
5430.0 16.035435
5440.0 16.020972
5450.0 15.997366
5460.0 15.971239
5470.0 15.958207
5480.0 15.947236
5490.0 15.931054
5500.0 15.910244
5510.0 15.882780
5520.0 15.867511
5530.0 15.853203
5540.0 15.836915
5550.0 15.810044
5560.0 15.784368
5570.0 15.758443
5580.0 15.744530
5590.0 15.726386
5600.0 15.700800
5610.0 15.678692
5620.0 15.653855
5630.0 15.628487
5640.0 15.607491
5650.0 15.587759
5660.0 15.565393
5670.0 15.541651
5680.0 15.518556
5690.0 15.503273
5700.0 15.482337
5710.0 15.457685
5720.0 15.435518
5730.0 15.411447
5740.0 15.391644
5750.0 15.377030
5760.0 15.358728
5770.0 15.335515
5780.0 15.320601
5790.0 15.300013
5800.0 15.283192
5810.0 15.270976
5820.0 15.256660
5830.0 15.234168
5840.0 15.213125
5850.0 15.199265
5860.0 15.192283
5870.0 15.183153
5880.0 15.180486
5890.0 15.180223
5900.0 15.169232
5910.0 15.163059
5920.0 15.159109
5930.0 15.152473
5940.0 15.150861
5950.0 15.147958
5960.0 15.132613
5970.0 15.117432
5980.0 15.108357
5990.0 15.101986
6000.0 15.095078
6010.0 15.083355
6020.0 15.072577
6030.0 15.063073
6040.0 15.061262
6050.0 15.059668
6060.0 15.055528
6070.0 15.044991
6080.0 15.037258
6090.0 15.032045
6100.0 15.030228
6110.0 15.023391
6120.0 15.015084
6130.0 15.006190
6140.0 14.998919
6150.0 14.994363
6160.0 14.992851
6170.0 14.988605
6180.0 14.979721
6190.0 14.970487
6200.0 14.954986
6210.0 14.933599
6220.0 14.911908
6230.0 14.897604
6240.0 14.883621
6250.0 14.878129
6260.0 14.877946
6270.0 14.872659
6280.0 14.861462
6290.0 14.848116
6300.0 14.834340
6310.0 14.821757
6320.0 14.811844
6330.0 14.800478
6340.0 14.782820
6350.0 14.764229
6360.0 14.749071
6370.0 14.727362
6380.0 14.706223
6390.0 14.683995
6400.0 14.661884
6410.0 14.643416
6420.0 14.634088
6430.0 14.629989
6440.0 14.625475
6450.0 14.623077
6460.0 14.619600
6470.0 14.619452
6480.0 14.623450
6490.0 14.614801
6500.0 14.598950
6510.0 14.584226
6520.0 14.566208
6530.0 14.545525
6540.0 14.526009
6550.0 14.510912
6560.0 14.498642
6570.0 14.485070
6580.0 14.474013
6590.0 14.454500
6600.0 14.434551
6610.0 14.415271
6620.0 14.396927
6630.0 14.379190
6640.0 14.359767
6650.0 14.343978
6660.0 14.335680
6670.0 14.330156
6680.0 14.327410
6690.0 14.324546
6700.0 14.312517
6710.0 14.300340
6720.0 14.281538
6730.0 14.262554
6740.0 14.244137
6750.0 14.232570
6760.0 14.219640
6770.0 14.207999
6780.0 14.196488
6790.0 14.183976
6800.0 14.168310
6810.0 14.148745
6820.0 14.132024
6830.0 14.114863
6840.0 14.096223
6850.0 14.082356
6860.0 14.070734
6870.0 14.057522
6880.0 14.045032
6890.0 14.029794
6900.0 14.011295
6910.0 13.994470
6920.0 13.976456
6930.0 13.956845
6940.0 13.939322
6950.0 13.925419
6960.0 13.916691
6970.0 13.904020
6980.0 13.892556
6990.0 13.876671
7000.0 13.861945
7010.0 13.848284
7020.0 13.841808
7030.0 13.834226
7040.0 13.820220
7050.0 13.802232
7060.0 13.787047
7070.0 13.781715
7080.0 13.776044
7090.0 13.767496
7100.0 13.759374
7110.0 13.745075
7120.0 13.727574
7130.0 13.711831
7140.0 13.697707
7150.0 13.684871
7160.0 13.669292
7170.0 13.651761
7180.0 13.633153
7190.0 13.620877
7200.0 13.608926
7210.0 13.595650
7220.0 13.584723
7230.0 13.578107
7240.0 13.572645
7250.0 13.558745
7260.0 13.546914
7270.0 13.534481
7280.0 13.526153
7290.0 13.523928
7300.0 13.518614
7310.0 13.505738
7320.0 13.493082
7330.0 13.481545
7340.0 13.476402
7350.0 13.469179
7360.0 13.461424
7370.0 13.453664
7380.0 13.446011
7390.0 13.438468
7400.0 13.429365
7410.0 13.417171
7420.0 13.409801
7430.0 13.404590
7440.0 13.396339
7450.0 13.389982
7460.0 13.384618
7470.0 13.379096
7480.0 13.371018
7490.0 13.368252
7500.0 13.365795
7510.0 13.361178
7520.0 13.354097
7530.0 13.348468
7540.0 13.345142
7550.0 13.345835
7560.0 13.340998
7570.0 13.335044
7580.0 13.322184
7590.0 13.312209
7600.0 13.302239
7610.0 13.288687
7620.0 13.277860
7630.0 13.264938
7640.0 13.250971
7650.0 13.235679
7660.0 13.220158
7670.0 13.205259
7680.0 13.190753
7690.0 13.174933
7700.0 13.161757
7710.0 13.147500
7720.0 13.134487
7730.0 13.124060
7740.0 13.117049
7750.0 13.110778
7760.0 13.102755
7770.0 13.088588
7780.0 13.077265
7790.0 13.061963
7800.0 13.048504
7810.0 13.041551
7820.0 13.037046
7830.0 13.032063
7840.0 13.024171
7850.0 13.017652
7860.0 13.014140
7870.0 13.006168
7880.0 12.997415
7890.0 13.002222
7900.0 13.004595
7910.0 12.995131
7920.0 12.981357
7930.0 12.969262
7940.0 12.957446
7950.0 12.949134
7960.0 12.951033
7970.0 12.948543
7980.0 12.946940
7990.0 12.946816
8000.0 12.948299
8010.0 12.942626
8020.0 12.929122
8030.0 12.916055
8040.0 12.901762
8050.0 12.888997
8060.0 12.878019
8070.0 12.864990
8080.0 12.852942
8090.0 12.842684
8100.0 12.841896
8110.0 12.836457
8120.0 12.831225
8130.0 12.833145
8140.0 12.840258
8150.0 12.844135
8160.0 12.846377
8170.0 12.847543
8180.0 12.851929
8190.0 12.860210
8200.0 12.876574
8210.0 12.895751
8220.0 12.917080
8230.0 12.934043
8240.0 12.946643
8250.0 12.952539
8260.0 12.960560
8270.0 12.967168
8280.0 12.967847
8290.0 12.962116
8300.0 12.957935
8310.0 12.955073
8320.0 12.952798
8330.0 12.954086
8340.0 12.958748
8350.0 12.964432
8360.0 12.962498
8370.0 12.952408
8380.0 12.939228
8390.0 12.927102
8400.0 12.916901
8410.0 12.909820
8420.0 12.907333
8430.0 12.905593
8440.0 12.902444
8450.0 12.891599
8460.0 12.879732
8470.0 12.872304
8480.0 12.859740
8490.0 12.854287
8500.0 12.849643
8510.0 12.840366
8520.0 12.827074
8530.0 12.815559
8540.0 12.803283
8550.0 12.789332
8560.0 12.775981
8570.0 12.763245
8580.0 12.749116
8590.0 12.737848
8600.0 12.723407
8610.0 12.711019
8620.0 12.697867
8630.0 12.688527
8640.0 12.688594
8650.0 12.691080
8660.0 12.695596
8670.0 12.700827
8680.0 12.702320
8690.0 12.706055
8700.0 12.715492
8710.0 12.728408
8720.0 12.739731
8730.0 12.756251
8740.0 12.762030
8750.0 12.765666
8760.0 12.769777
8770.0 12.775392
8780.0 12.786678
8790.0 12.800980
8800.0 12.819492
8810.0 12.838455
8820.0 12.849621
8830.0 12.863470
8840.0 12.883295
8850.0 12.898598
8860.0 12.914382
8870.0 12.928335
8880.0 12.942092
8890.0 12.958325
8900.0 12.969551
8910.0 12.982124
8920.0 13.004898
8930.0 13.028257
8940.0 13.050541
8950.0 13.077992
8960.0 13.105279
8970.0 13.126228
8980.0 13.143659
8990.0 13.156807
9000.0 13.175361
9010.0 13.192721
9020.0 13.205617
9030.0 13.209717
9040.0 13.209541
9050.0 13.206013
9060.0 13.210537
9070.0 13.214970
9080.0 13.221758
9090.0 13.229572
9100.0 13.238825
9110.0 13.240737
9120.0 13.232919
9130.0 13.226841
9140.0 13.220625
9150.0 13.215588
9160.0 13.208910
9170.0 13.197000
9180.0 13.183053
9190.0 13.171301
9200.0 13.161594
9210.0 13.148459
9220.0 13.136027
9230.0 13.130352
9240.0 13.127704
9250.0 13.127471
9260.0 13.122478
9270.0 13.115741
9280.0 13.106714
9290.0 13.094029
9300.0 13.080534
9310.0 13.068645
9320.0 13.060603
9330.0 13.048633
9340.0 13.038016
9350.0 13.027519
9360.0 13.019851
9370.0 13.015209
9380.0 13.006479
9390.0 12.995710
9400.0 12.985962
9410.0 12.972729
9420.0 12.959967
9430.0 12.947818
9440.0 12.939319
9450.0 12.927353
9460.0 12.920251
9470.0 12.914586
9480.0 12.909156
9490.0 12.902570
9500.0 12.894213
9510.0 12.881675
9520.0 12.868877
9530.0 12.856480
9540.0 12.843816
9550.0 12.834721
9560.0 12.837524
9570.0 12.836407
9580.0 12.834025
9590.0 12.833690
9600.0 12.832971
9610.0 12.834537
9620.0 12.840341
9630.0 12.848600
9640.0 12.857234
9650.0 12.870556
9660.0 12.885394
9670.0 12.903048
9680.0 12.919449
9690.0 12.934667
9700.0 12.946110
9710.0 12.955958
9720.0 12.963543
9730.0 12.971040
9740.0 12.976564
9750.0 12.980605
9760.0 12.982385
9770.0 12.979593
9780.0 12.971091
9790.0 12.959890
9800.0 12.953184
9810.0 12.944228
9820.0 12.938540
9830.0 12.928004
9840.0 12.919134
9850.0 12.906783
9860.0 12.894110
9870.0 12.881993
9880.0 12.869572
9890.0 12.858783
9900.0 12.850701
9910.0 12.842364
9920.0 12.832417
9930.0 12.821828
9940.0 12.812983
9950.0 12.805926
9960.0 12.802742
9970.0 12.796892
9980.0 12.788857
9990.0 12.780166
10000.0 12.770653
10010.0 12.764859
10020.0 12.762630
10030.0 12.757597
10040.0 12.751288
10050.0 12.745431
10060.0 12.734160
10070.0 12.722567
10080.0 12.710523
10090.0 12.705957
10100.0 12.706921
10110.0 12.701386
10120.0 12.696317
10130.0 12.689900
10140.0 12.679273
10150.0 12.668652
10160.0 12.658771
10170.0 12.647438
10180.0 12.639082
10190.0 12.631011
10200.0 12.626429
10210.0 12.625324
10220.0 12.620578
10230.0 12.613382
10240.0 12.606774
10250.0 12.597584
10260.0 12.591558
10270.0 12.586356
10280.0 12.582945
10290.0 12.580521
10300.0 12.574764
10310.0 12.563187
10320.0 12.552797
10330.0 12.545729
10340.0 12.543919
10350.0 12.542205
10360.0 12.543552
10370.0 12.545171
10380.0 12.549354
10390.0 12.552092
10400.0 12.556371
10410.0 12.552140
10420.0 12.547344
10430.0 12.545116
10440.0 12.546398
10450.0 12.547888
10460.0 12.545032
10470.0 12.539344
10480.0 12.536071
10490.0 12.529692
10500.0 12.524194
10510.0 12.516580
10520.0 12.506045
10530.0 12.495181
10540.0 12.484576
10550.0 12.473237
10560.0 12.462535
10570.0 12.452925
10580.0 12.442493
10590.0 12.432210
10600.0 12.425783
10610.0 12.417151
10620.0 12.413388
10630.0 12.411994
10640.0 12.407060
10650.0 12.400277
10660.0 12.396340
10670.0 12.392238
10680.0 12.390215
10690.0 12.388176
10700.0 12.384255
10710.0 12.375819
10720.0 12.364771
10730.0 12.353726
10740.0 12.344345
10750.0 12.336835
10760.0 12.330406
10770.0 12.321705
10780.0 12.312310
10790.0 12.302807
10800.0 12.295582
10810.0 12.285419
10820.0 12.276693
10830.0 12.266029
10840.0 12.259976
10850.0 12.253948
10860.0 12.246609
10870.0 12.236957
10880.0 12.230982
10890.0 12.221931
10900.0 12.213798
10910.0 12.204285
10920.0 12.194030
10930.0 12.185794
10940.0 12.181116
10950.0 12.177561
10960.0 12.169626
10970.0 12.160623
10980.0 12.150455
10990.0 12.140707
11000.0 12.130775
11010.0 12.121245
11020.0 12.118421
11030.0 12.118258
11040.0 12.124801
11050.0 12.138297
11060.0 12.150306
11070.0 12.162364
11080.0 12.174828
11090.0 12.191366
11100.0 12.198836
11110.0 12.198475
11120.0 12.192688
11130.0 12.183383
11140.0 12.174629
11150.0 12.164266
11160.0 12.154503
11170.0 12.144498
11180.0 12.135164
11190.0 12.125052
11200.0 12.114992
11210.0 12.106278
11220.0 12.100420
11230.0 12.091917
11240.0 12.082323
11250.0 12.073382
11260.0 12.065977
11270.0 12.057308
11280.0 12.052487
11290.0 12.047556
11300.0 12.049475
11310.0 12.053010
11320.0 12.053933
11330.0 12.054258
11340.0 12.054493
11350.0 12.052437
11360.0 12.051826
11370.0 12.051710
11380.0 12.049019
11390.0 12.050602
11400.0 12.056219
11410.0 12.062011
11420.0 12.065275
11430.0 12.067800
11440.0 12.069930
11450.0 12.073851
11460.0 12.072222
11470.0 12.067922
11480.0 12.060103
11490.0 12.053698
11500.0 12.051197
11510.0 12.052843
11520.0 12.056743
11530.0 12.060119
11540.0 12.061673
11550.0 12.060716
11560.0 12.057571
11570.0 12.054839
11580.0 12.056086
11590.0 12.061080
11600.0 12.065548
11610.0 12.071212
11620.0 12.073787
11630.0 12.075076
11640.0 12.073793
11650.0 12.073026
11660.0 12.069276
11670.0 12.070182
11680.0 12.065340
11690.0 12.059385
11700.0 12.049629
11710.0 12.040338
11720.0 12.032517
11730.0 12.024676
11740.0 12.015262
11750.0 12.007761
11760.0 12.001022
11770.0 11.992577
11780.0 11.985893
11790.0 11.978024
11800.0 11.968656
11810.0 11.961820
11820.0 11.952914
11830.0 11.945096
11840.0 11.940276
11850.0 11.936882
11860.0 11.934560
11870.0 11.929971
11880.0 11.921407
11890.0 11.912285
11900.0 11.903468
11910.0 11.894038
11920.0 11.886805
11930.0 11.884783
11940.0 11.877112
11950.0 11.872797
11960.0 11.875749
11970.0 11.882409
11980.0 11.884227
11990.0 11.884710
12000.0 11.881598
12010.0 11.883852
12020.0 11.884717
12030.0 11.891055
12040.0 11.895880
12050.0 11.900451
12060.0 11.903823
12070.0 11.903419
12080.0 11.901545
12090.0 11.902764
12100.0 11.906771
12110.0 11.909804
12120.0 11.909653
12130.0 11.905063
12140.0 11.898794
12150.0 11.895771
12160.0 11.890461
12170.0 11.881244
12180.0 11.872164
12190.0 11.864316
12200.0 11.856083
12210.0 11.847234
12220.0 11.838751
12230.0 11.829786
12240.0 11.820839
12250.0 11.814906
12260.0 11.809795
12270.0 11.807621
12280.0 11.808704
12290.0 11.812015
12300.0 11.814013
12310.0 11.816187
12320.0 11.815852
12330.0 11.813197
12340.0 11.807355
12350.0 11.800662
12360.0 11.793270
12370.0 11.785997
12380.0 11.780110
12390.0 11.773415
12400.0 11.764484
12410.0 11.755701
12420.0 11.747898
12430.0 11.741037
12440.0 11.733175
12450.0 11.724370
12460.0 11.716867
12470.0 11.710116
12480.0 11.703522
12490.0 11.703326
12500.0 11.706649
12510.0 11.709364
12520.0 11.714263
12530.0 11.719696
12540.0 11.724030
12550.0 11.725896
12560.0 11.723427
12570.0 11.719585
12580.0 11.714904
12590.0 11.709991
12600.0 11.702899
12610.0 11.695741
12620.0 11.687635
12630.0 11.679287
12640.0 11.670947
12650.0 11.663745
12660.0 11.655312
12670.0 11.649016
12680.0 11.645667
12690.0 11.640327
12700.0 11.637245
12710.0 11.637659
12720.0 11.643280
12730.0 11.647721
12740.0 11.648550
12750.0 11.648331
12760.0 11.649854
12770.0 11.652742
12780.0 11.656221
12790.0 11.660496
12800.0 11.661938
12810.0 11.660596
12820.0 11.656197
12830.0 11.651432
12840.0 11.643184
12850.0 11.635047
12860.0 11.626767
12870.0 11.620168
12880.0 11.614503
12890.0 11.610680
12900.0 11.605743
12910.0 11.601350
12920.0 11.596702
12930.0 11.593657
12940.0 11.591316
12950.0 11.587610
12960.0 11.584875
12970.0 11.581059
12980.0 11.573032
12990.0 11.564530
13000.0 11.556570
13010.0 11.548032
13020.0 11.539723
13030.0 11.532366
13040.0 11.524092
13050.0 11.516890
13060.0 11.512529
13070.0 11.507902
13080.0 11.505392
13090.0 11.502355
13100.0 11.501517
13110.0 11.499115
13120.0 11.497132
13130.0 11.494531
13140.0 11.496201
13150.0 11.497646
13160.0 11.499538
13170.0 11.500419
13180.0 11.503363
13190.0 11.506195
13200.0 11.506275
13210.0 11.506683
13220.0 11.508428
13230.0 11.509726
13240.0 11.511730
13250.0 11.517826
13260.0 11.526933
13270.0 11.532902
13280.0 11.535645
13290.0 11.538833
13300.0 11.542330
13310.0 11.543245
13320.0 11.544483
13330.0 11.546016
13340.0 11.550931
13350.0 11.552565
13360.0 11.555173
13370.0 11.561477
13380.0 11.572173
13390.0 11.579392
13400.0 11.590395
13410.0 11.600849
13420.0 11.611669
13430.0 11.625139
13440.0 11.640206
13450.0 11.649080
13460.0 11.651669
13470.0 11.651933
13480.0 11.653264
13490.0 11.656160
13500.0 11.662781
13510.0 11.670096
13520.0 11.676898
13530.0 11.688555
13540.0 11.700015
13550.0 11.712488
13560.0 11.720918
13570.0 11.730740
13580.0 11.742433
13590.0 11.755655
13600.0 11.771317
13610.0 11.784198
13620.0 11.794195
13630.0 11.802814
13640.0 11.812077
13650.0 11.819950
13660.0 11.826259
13670.0 11.830757
13680.0 11.830470
13690.0 11.830093
13700.0 11.828275
13710.0 11.827204
13720.0 11.824351
13730.0 11.818345
13740.0 11.813110
13750.0 11.808378
13760.0 11.800925
13770.0 11.792720
13780.0 11.784443
13790.0 11.776995
13800.0 11.773106
13810.0 11.773131
13820.0 11.770939
13830.0 11.769805
13840.0 11.771209
13850.0 11.771135
13860.0 11.772339
13870.0 11.775713
13880.0 11.775803
13890.0 11.778288
13900.0 11.784883
13910.0 11.792486
13920.0 11.800376
13930.0 11.808480
13940.0 11.813725
13950.0 11.816437
13960.0 11.818316
13970.0 11.820523
13980.0 11.822304
13990.0 11.829028
14000.0 11.832881
14010.0 11.832204
14020.0 11.828637
14030.0 11.826398
14040.0 11.822885
14050.0 11.816815
14060.0 11.813439
14070.0 11.810258
14080.0 11.806598
14090.0 11.804214
14100.0 11.804154
14110.0 11.804011
14120.0 11.805809
14130.0 11.811461
14140.0 11.816872
14150.0 11.821609
14160.0 11.827591
14170.0 11.835913
14180.0 11.841135
14190.0 11.849176
14200.0 11.859802
14210.0 11.866805
14220.0 11.869832
14230.0 11.872753
14240.0 11.878414
14250.0 11.882710
14260.0 11.888397
14270.0 11.890282
14280.0 11.894408
14290.0 11.900090
14300.0 11.906500
14310.0 11.913793
14320.0 11.921689
14330.0 11.928907
14340.0 11.934231
14350.0 11.938964
14360.0 11.944367
14370.0 11.946054
14380.0 11.946344
14390.0 11.944981
14400.0 11.943710
14410.0 11.942162
14420.0 11.939527
14430.0 11.942146
14440.0 11.943410
14450.0 11.939862
14460.0 11.933199
14470.0 11.929265
14480.0 11.927715
14490.0 11.924709
14500.0 11.917682
14510.0 11.910228
14520.0 11.904212
14530.0 11.897282
14540.0 11.889951
14550.0 11.883102
14560.0 11.876455
14570.0 11.868691
14580.0 11.861171
14590.0 11.854478
14600.0 11.848135
14610.0 11.840700
14620.0 11.833306
14630.0 11.825528
14640.0 11.818264
14650.0 11.814312
14660.0 11.810619
14670.0 11.803949
14680.0 11.799872
14690.0 11.797570
14700.0 11.794554
14710.0 11.787637
14720.0 11.780050
14730.0 11.775725
14740.0 11.772863
14750.0 11.775432
14760.0 11.782269
14770.0 11.786889
14780.0 11.789918
14790.0 11.790375
14800.0 11.787217
14810.0 11.781367
14820.0 11.776548
14830.0 11.775232
14840.0 11.775884
14850.0 11.780357
14860.0 11.783246
14870.0 11.782545
14880.0 11.780271
14890.0 11.778783
14900.0 11.774453
14910.0 11.769622
14920.0 11.762246
14930.0 11.758499
14940.0 11.759834
14950.0 11.760569
14960.0 11.759599
14970.0 11.759390
14980.0 11.756821
14990.0 11.752481
15000.0 11.745424
15010.0 11.738708
15020.0 11.732132
15030.0 11.724789
15040.0 11.721637
15050.0 11.721978
15060.0 11.720742
15070.0 11.719467
15080.0 11.718180
15090.0 11.715230
15100.0 11.710630
15110.0 11.703524
15120.0 11.697417
15130.0 11.695599
15140.0 11.693683
15150.0 11.689903
15160.0 11.684422
15170.0 11.677258
15180.0 11.669985
15190.0 11.663849
15200.0 11.659173
15210.0 11.653656
15220.0 11.648254
15230.0 11.647616
15240.0 11.648102
15250.0 11.649935
15260.0 11.651882
15270.0 11.651957
15280.0 11.655585
15290.0 11.662889
15300.0 11.669084
15310.0 11.672809
15320.0 11.674131
15330.0 11.671951
15340.0 11.668879
15350.0 11.665580
15360.0 11.662093
15370.0 11.656699
15380.0 11.650574
15390.0 11.646425
15400.0 11.643669
15410.0 11.637267
15420.0 11.630794
15430.0 11.628022
15440.0 11.625386
15450.0 11.625561
15460.0 11.626735
15470.0 11.628532
15480.0 11.629751
15490.0 11.631749
15500.0 11.633290
15510.0 11.636187
15520.0 11.637206
15530.0 11.635701
15540.0 11.631263
15550.0 11.624767
15560.0 11.619608
15570.0 11.613549
15580.0 11.607291
15590.0 11.603572
15600.0 11.601059
15610.0 11.600236
15620.0 11.595611
15630.0 11.590589
15640.0 11.588823
15650.0 11.590255
15660.0 11.591609
15670.0 11.592265
15680.0 11.591886
15690.0 11.592548
15700.0 11.593494
15710.0 11.597158
15720.0 11.600388
15730.0 11.602404
15740.0 11.604553
15750.0 11.604866
15760.0 11.604652
15770.0 11.603405
15780.0 11.601549
15790.0 11.596544
15800.0 11.589954
15810.0 11.584016
15820.0 11.578922
15830.0 11.572771
15840.0 11.567171
15850.0 11.560202
15860.0 11.553194
15870.0 11.547002
15880.0 11.540335
15890.0 11.533555
15900.0 11.528996
15910.0 11.525049
15920.0 11.519788
15930.0 11.513670
15940.0 11.508318
15950.0 11.502041
15960.0 11.495976
15970.0 11.489399
15980.0 11.488299
15990.0 11.491738
16000.0 11.496643
16010.0 11.500191
16020.0 11.502503
16030.0 11.506436
16040.0 11.510361
16050.0 11.512473
16060.0 11.512649
16070.0 11.508718
16080.0 11.503955
16090.0 11.497485
16100.0 11.491386
16110.0 11.485151
16120.0 11.479420
16130.0 11.474101
16140.0 11.468074
16150.0 11.465388
16160.0 11.463166
16170.0 11.461482
16180.0 11.460519
16190.0 11.462732
16200.0 11.465919
16210.0 11.464473
16220.0 11.462642
16230.0 11.459775
16240.0 11.456369
16250.0 11.452292
16260.0 11.448170
16270.0 11.443358
16280.0 11.442071
16290.0 11.440862
16300.0 11.441398
16310.0 11.441132
16320.0 11.439645
16330.0 11.438209
16340.0 11.435951
16350.0 11.430226
16360.0 11.423707
16370.0 11.420669
16380.0 11.417401
16390.0 11.412935
16400.0 11.407976
16410.0 11.405800
16420.0 11.403890
16430.0 11.401187
16440.0 11.398028
16450.0 11.394594
16460.0 11.390736
16470.0 11.386965
16480.0 11.385571
16490.0 11.385275
16500.0 11.385611
16510.0 11.388574
16520.0 11.395264
16530.0 11.402940
16540.0 11.413737
16550.0 11.426616
16560.0 11.436982
16570.0 11.448134
16580.0 11.459173
16590.0 11.470976
16600.0 11.481675
16610.0 11.495936
16620.0 11.507442
16630.0 11.521436
16640.0 11.534759
16650.0 11.545752
16660.0 11.556660
16670.0 11.564753
16680.0 11.572556
16690.0 11.579645
16700.0 11.581715
16710.0 11.583789
16720.0 11.589267
16730.0 11.593216
16740.0 11.598398
16750.0 11.606787
16760.0 11.617120
16770.0 11.623873
16780.0 11.630554
16790.0 11.635638
16800.0 11.640325
16810.0 11.643729
16820.0 11.645222
16830.0 11.645599
16840.0 11.645703
16850.0 11.647134
16860.0 11.651380
16870.0 11.655557
16880.0 11.658640
16890.0 11.662434
16900.0 11.665787
16910.0 11.671345
16920.0 11.677217
16930.0 11.683645
16940.0 11.689117
16950.0 11.693453
16960.0 11.698755
16970.0 11.702497
16980.0 11.709650
16990.0 11.717163
17000.0 11.722617
17010.0 11.726461
17020.0 11.730998
17030.0 11.733854
17040.0 11.741658
17050.0 11.753055
17060.0 11.765271
17070.0 11.776779
17080.0 11.787423
17090.0 11.796898
17100.0 11.805982
17110.0 11.814791
17120.0 11.822974
17130.0 11.831903
17140.0 11.838405
17150.0 11.844666
17160.0 11.847961
17170.0 11.849543
17180.0 11.853478
17190.0 11.857333
17200.0 11.858746
17210.0 11.860441
17220.0 11.861264
17230.0 11.864485
17240.0 11.870689
17250.0 11.876190
17260.0 11.881292
17270.0 11.886870
17280.0 11.894037
17290.0 11.901626
17300.0 11.909584
17310.0 11.918163
17320.0 11.922081
17330.0 11.926344
17340.0 11.934003
17350.0 11.939994
17360.0 11.946159
17370.0 11.951188
17380.0 11.954144
17390.0 11.960193
17400.0 11.970121
17410.0 11.979494
17420.0 11.987834
17430.0 11.995188
17440.0 12.004995
17450.0 12.016111
17460.0 12.023992
17470.0 12.029280
17480.0 12.038276
17490.0 12.045221
17500.0 12.051028
17510.0 12.056595
17520.0 12.062259
17530.0 12.069417
17540.0 12.075225
17550.0 12.085067
17560.0 12.096096
17570.0 12.104831
17580.0 12.115585
17590.0 12.125782
17600.0 12.136655
17610.0 12.146869
17620.0 12.157281
17630.0 12.170537
17640.0 12.184166
17650.0 12.197453
17660.0 12.207706
17670.0 12.218920
17680.0 12.230245
17690.0 12.243628
17700.0 12.259174
17710.0 12.271589
17720.0 12.281659
17730.0 12.291700
17740.0 12.300862
17750.0 12.312179
17760.0 12.323017
17770.0 12.335989
17780.0 12.349087
17790.0 12.362202
17800.0 12.375343
17810.0 12.388306
17820.0 12.397332
17830.0 12.407012
17840.0 12.416544
17850.0 12.427687
17860.0 12.439726
17870.0 12.451784
17880.0 12.461156
17890.0 12.467577
17900.0 12.474068
17910.0 12.474719
17920.0 12.472536
17930.0 12.470053
17940.0 12.467789
17950.0 12.466915
17960.0 12.469233
17970.0 12.474270
17980.0 12.480403
17990.0 12.483610
18000.0 12.488695
18010.0 12.493943
18020.0 12.498298
18030.0 12.505249
18040.0 12.512267
18050.0 12.521181
18060.0 12.528085
18070.0 12.534854
18080.0 12.539745
18090.0 12.544686
18100.0 12.547555
18110.0 12.552410
18120.0 12.554498
18130.0 12.553517
18140.0 12.552663
18150.0 12.553441
18160.0 12.555803
18170.0 12.557121
18180.0 12.554320
18190.0 12.550433
18200.0 12.546790
18210.0 12.543081
18220.0 12.537177
18230.0 12.530692
18240.0 12.524816
18250.0 12.520681
18260.0 12.516020
18270.0 12.510808
18280.0 12.504439
18290.0 12.500449
18300.0 12.496564
18310.0 12.493946
18320.0 12.493873
18330.0 12.495859
18340.0 12.498791
18350.0 12.501267
18360.0 12.504720
18370.0 12.507489
18380.0 12.510787
18390.0 12.513803
18400.0 12.520033
18410.0 12.528130
18420.0 12.539172
18430.0 12.549805
18440.0 12.558584
18450.0 12.566039
18460.0 12.574184
18470.0 12.583087
18480.0 12.591563
18490.0 12.598703
18500.0 12.605494
18510.0 12.610558
18520.0 12.612802
18530.0 12.614960
18540.0 12.619555
18550.0 12.625668
18560.0 12.633713
18570.0 12.639014
18580.0 12.644148
18590.0 12.649088
18600.0 12.657354
18610.0 12.665962
18620.0 12.671158
18630.0 12.676589
18640.0 12.681587
18650.0 12.682835
18660.0 12.685363
18670.0 12.688280
18680.0 12.689577
18690.0 12.690865
18700.0 12.690494
18710.0 12.689499
18720.0 12.688085
18730.0 12.687062
18740.0 12.681360
18750.0 12.674934
18760.0 12.669219
18770.0 12.664189
18780.0 12.659109
18790.0 12.654953
18800.0 12.649751
18810.0 12.644294
18820.0 12.639103
18830.0 12.634228
18840.0 12.629408
18850.0 12.626075
18860.0 12.627284
18870.0 12.629771
18880.0 12.635335
18890.0 12.641752
18900.0 12.651532
18910.0 12.661535
18920.0 12.671410
18930.0 12.681223
18940.0 12.688035
18950.0 12.694529
18960.0 12.701113
18970.0 12.707592
18980.0 12.714827
18990.0 12.723208
19000.0 12.732881
19010.0 12.742334
19020.0 12.753273
19030.0 12.764467
19040.0 12.776363
19050.0 12.786399
19060.0 12.793957
19070.0 12.801442
19080.0 12.809888
19090.0 12.820258
19100.0 12.831929
19110.0 12.842126
19120.0 12.851006
19130.0 12.855395
19140.0 12.859555
19150.0 12.865240
19160.0 12.870742
19170.0 12.876025
19180.0 12.881175
19190.0 12.887024
19200.0 12.894537
19210.0 12.900303
19220.0 12.907034
19230.0 12.912838
19240.0 12.917218
19250.0 12.916985
19260.0 12.912577
19270.0 12.909066
19280.0 12.902881
19290.0 12.896457
19300.0 12.889878
19310.0 12.883800
19320.0 12.878040
19330.0 12.871728
19340.0 12.865261
19350.0 12.858807
19360.0 12.855617
19370.0 12.851679
19380.0 12.848162
19390.0 12.844008
19400.0 12.839610
19410.0 12.835487
19420.0 12.829245
19430.0 12.824131
19440.0 12.818096
19450.0 12.811798
19460.0 12.806372
19470.0 12.801008
19480.0 12.798485
19490.0 12.793881
19500.0 12.790622
19510.0 12.786440
19520.0 12.782615
19530.0 12.778749
19540.0 12.775898
19550.0 12.775281
19560.0 12.772265
19570.0 12.770043
19580.0 12.766900
19590.0 12.761770
19600.0 12.760447
19610.0 12.760043
19620.0 12.760406
19630.0 12.760762
19640.0 12.761202
19650.0 12.760000
19660.0 12.757608
19670.0 12.751970
19680.0 12.747841
19690.0 12.744158
19700.0 12.737917
19710.0 12.732468
19720.0 12.730271
19730.0 12.729747
19740.0 12.726206
19750.0 12.720683
19760.0 12.715028
19770.0 12.711439
19780.0 12.706273
19790.0 12.700732
19800.0 12.695567
19810.0 12.691424
19820.0 12.687855
19830.0 12.684108
19840.0 12.679911
19850.0 12.674352
19860.0 12.668141
19870.0 12.663014
19880.0 12.657124
19890.0 12.651980
19900.0 12.645841
19910.0 12.639628
19920.0 12.634304
19930.0 12.628435
19940.0 12.622251
19950.0 12.618501
19960.0 12.614301
19970.0 12.608403
19980.0 12.603393
19990.0 12.598802
20000.0 12.592813
20010.0 12.589234
20020.0 12.585603
20030.0 12.582143
20040.0 12.580291
20050.0 12.580540
20060.0 12.580614
20070.0 12.583060
20080.0 12.584720
20090.0 12.583261
20100.0 12.582777
20110.0 12.584593
20120.0 12.589382
20130.0 12.592459
20140.0 12.594921
20150.0 12.594153
20160.0 12.595115
20170.0 12.598196
20180.0 12.602377
20190.0 12.603140
20200.0 12.603529
20210.0 12.604257
20220.0 12.607787
20230.0 12.611406
20240.0 12.616493
20250.0 12.624290
20260.0 12.632848
20270.0 12.641170
20280.0 12.650463
20290.0 12.663646
20300.0 12.675733
20310.0 12.685786
20320.0 12.695940
20330.0 12.703581
20340.0 12.708305
20350.0 12.711165
20360.0 12.711409
20370.0 12.711632
20380.0 12.709685
20390.0 12.710064
20400.0 12.712660
20410.0 12.714443
20420.0 12.714867
20430.0 12.713541
20440.0 12.714516
20450.0 12.717220
20460.0 12.718285
20470.0 12.721218
20480.0 12.723691
20490.0 12.724020
20500.0 12.722979
20510.0 12.721711
20520.0 12.720012
20530.0 12.716340
20540.0 12.712144
20550.0 12.707395
20560.0 12.701867
20570.0 12.697104
20580.0 12.692092
20590.0 12.688174
20600.0 12.686529
20610.0 12.685683
20620.0 12.683713
20630.0 12.679171
20640.0 12.673320
20650.0 12.669855
20660.0 12.666284
20670.0 12.662695
20680.0 12.659554
20690.0 12.655550
20700.0 12.653521
20710.0 12.652930
20720.0 12.653517
20730.0 12.653313
20740.0 12.653358
20750.0 12.654816
20760.0 12.655060
20770.0 12.653899
20780.0 12.654946
20790.0 12.654951
20800.0 12.654612
20810.0 12.653550
20820.0 12.652080
20830.0 12.652160
20840.0 12.649437
20850.0 12.646864
20860.0 12.642903
20870.0 12.640270
20880.0 12.639620
20890.0 12.640621
20900.0 12.640573
20910.0 12.639695
20920.0 12.637853
20930.0 12.635902
20940.0 12.631990
20950.0 12.628328
20960.0 12.624777
20970.0 12.621138
20980.0 12.617532
20990.0 12.612442
21000.0 12.607205
21010.0 12.602832
21020.0 12.597132
21030.0 12.594116
21040.0 12.592328
21050.0 12.591640
21060.0 12.591534
21070.0 12.591252
21080.0 12.592009
21090.0 12.592126
21100.0 12.590171
21110.0 12.586273
21120.0 12.581474
21130.0 12.577119
21140.0 12.573265
21150.0 12.567959
21160.0 12.562672
21170.0 12.560186
21180.0 12.558340
21190.0 12.556365
21200.0 12.553393
21210.0 12.551401
21220.0 12.546332
21230.0 12.540727
21240.0 12.536744
21250.0 12.532419
21260.0 12.527376
21270.0 12.523868
21280.0 12.519707
21290.0 12.516406
21300.0 12.514881
21310.0 12.513864
21320.0 12.513570
21330.0 12.511652
21340.0 12.508618
21350.0 12.505646
21360.0 12.504190
21370.0 12.501877
21380.0 12.497670
21390.0 12.493353
21400.0 12.488324
21410.0 12.485650
21420.0 12.484361
21430.0 12.484922
21440.0 12.485745
21450.0 12.486306
21460.0 12.484327
21470.0 12.480269
21480.0 12.478990
21490.0 12.478509
21500.0 12.476474
21510.0 12.473770
21520.0 12.470716
21530.0 12.467981
21540.0 12.466889
21550.0 12.463938
21560.0 12.460165
21570.0 12.455027
21580.0 12.451650
21590.0 12.450041
21600.0 12.446392
21610.0 12.443111
21620.0 12.440614
21630.0 12.439208
21640.0 12.436541
21650.0 12.431666
21660.0 12.426288
21670.0 12.421001
21680.0 12.415706
21690.0 12.410864
21700.0 12.405557
21710.0 12.400002
21720.0 12.396729
21730.0 12.395426
21740.0 12.395575
21750.0 12.396994
21760.0 12.398048
21770.0 12.399215
21780.0 12.400283
21790.0 12.399361
21800.0 12.399891
21810.0 12.400298
21820.0 12.402319
21830.0 12.407843
21840.0 12.414633
21850.0 12.420773
21860.0 12.425975
21870.0 12.429716
21880.0 12.430464
21890.0 12.431092
21900.0 12.432494
21910.0 12.432423
21920.0 12.431541
21930.0 12.430324
21940.0 12.431250
21950.0 12.433573
21960.0 12.437010
21970.0 12.443893
21980.0 12.449630
21990.0 12.453026
22000.0 12.456718
22010.0 12.463795
22020.0 12.470494
22030.0 12.474787
22040.0 12.477552
22050.0 12.478475
22060.0 12.479192
22070.0 12.480972
22080.0 12.483801
22090.0 12.487847
22100.0 12.493971
22110.0 12.501749
22120.0 12.506814
22130.0 12.510195
22140.0 12.512982
22150.0 12.512227
22160.0 12.507772
22170.0 12.503014
22180.0 12.497825
22190.0 12.493824
22200.0 12.489759
22210.0 12.486948
22220.0 12.484740
22230.0 12.480420
22240.0 12.475554
22250.0 12.472572
22260.0 12.471343
22270.0 12.469197
22280.0 12.467127
22290.0 12.462788
22300.0 12.458950
22310.0 12.457194
22320.0 12.456726
22330.0 12.456987
22340.0 12.456339
22350.0 12.455128
22360.0 12.455779
22370.0 12.457616
22380.0 12.459426
22390.0 12.459508
22400.0 12.457451
22410.0 12.452485
22420.0 12.447914
22430.0 12.445171
22440.0 12.443153
22450.0 12.440878
22460.0 12.439952
22470.0 12.440134
22480.0 12.440350
22490.0 12.442323
22500.0 12.444336
22510.0 12.447601
22520.0 12.451494
22530.0 12.453391
22540.0 12.455725
22550.0 12.457330
22560.0 12.462087
22570.0 12.467295
22580.0 12.470831
22590.0 12.473989
22600.0 12.476248
22610.0 12.480377
22620.0 12.484132
22630.0 12.486068
22640.0 12.486248
22650.0 12.482291
22660.0 12.478847
22670.0 12.477508
22680.0 12.477208
22690.0 12.476063
22700.0 12.474289
22710.0 12.475307
22720.0 12.476744
22730.0 12.476482
22740.0 12.475864
22750.0 12.476485
22760.0 12.475413
22770.0 12.472973
22780.0 12.474140
22790.0 12.473350
22800.0 12.470913
22810.0 12.467547
22820.0 12.465981
22830.0 12.462888
22840.0 12.458136
22850.0 12.453213
22860.0 12.449650
22870.0 12.444784
22880.0 12.441990
22890.0 12.438992
22900.0 12.434928
22910.0 12.431152
22920.0 12.428278
22930.0 12.424188
22940.0 12.420730
22950.0 12.415975
22960.0 12.411148
22970.0 12.408228
22980.0 12.406419
22990.0 12.405253
23000.0 12.404500
23010.0 12.403843
23020.0 12.400249
23030.0 12.396106
23040.0 12.391370
23050.0 12.386652
23060.0 12.381865
23070.0 12.377562
23080.0 12.374299
23090.0 12.371217
23100.0 12.367466
23110.0 12.364834
23120.0 12.360746
23130.0 12.358713
23140.0 12.354309
23150.0 12.349625
23160.0 12.344560
23170.0 12.340340
23180.0 12.338564
23190.0 12.336914
23200.0 12.334921
23210.0 12.330902
23220.0 12.325853
23230.0 12.320960
23240.0 12.315996
23250.0 12.311708
23260.0 12.310017
23270.0 12.309733
23280.0 12.310187
23290.0 12.312084
23300.0 12.317068
23310.0 12.322405
23320.0 12.326252
23330.0 12.327074
23340.0 12.327708
23350.0 12.327935
23360.0 12.327573
23370.0 12.328274
23380.0 12.330195
23390.0 12.330459
23400.0 12.328540
23410.0 12.323834
23420.0 12.319531
23430.0 12.318997
23440.0 12.315268
23450.0 12.311643
23460.0 12.306594
23470.0 12.302109
23480.0 12.298770
23490.0 12.296755
23500.0 12.292987
23510.0 12.288725
23520.0 12.283602
23530.0 12.278781
23540.0 12.275427
23550.0 12.272217
23560.0 12.270341
23570.0 12.267755
23580.0 12.265595
23590.0 12.264484
23600.0 12.262395
23610.0 12.258167
23620.0 12.254183
23630.0 12.251336
23640.0 12.247074
23650.0 12.244144
23660.0 12.241970
23670.0 12.238105
23680.0 12.235059
23690.0 12.232699
23700.0 12.231100
23710.0 12.228558
23720.0 12.224674
23730.0 12.219806
23740.0 12.215278
23750.0 12.212132
23760.0 12.210352
23770.0 12.208302
23780.0 12.207291
23790.0 12.206009
23800.0 12.206007
23810.0 12.205729
23820.0 12.204926
23830.0 12.203843
23840.0 12.201800
23850.0 12.197573
23860.0 12.192668
23870.0 12.187868
23880.0 12.183043
23890.0 12.178636
23900.0 12.175352
23910.0 12.172323
23920.0 12.169269
23930.0 12.166008
23940.0 12.162425
23950.0 12.159757
23960.0 12.156268
23970.0 12.152965
23980.0 12.148572
23990.0 12.144985
24000.0 12.140755
24010.0 12.136154
24020.0 12.131923
24030.0 12.127682
24040.0 12.123272
24050.0 12.120278
24060.0 12.119108
24070.0 12.116881
24080.0 12.115288
24090.0 12.113550
24100.0 12.110726
24110.0 12.108641
24120.0 12.106420
24130.0 12.105857
24140.0 12.105206
24150.0 12.103381
24160.0 12.101215
24170.0 12.100231
24180.0 12.099863
24190.0 12.099187
24200.0 12.099309
24210.0 12.098974
24220.0 12.099503
24230.0 12.100673
24240.0 12.102347
24250.0 12.105799
24260.0 12.108774
24270.0 12.112575
24280.0 12.116981
24290.0 12.120368
24300.0 12.123346
24310.0 12.125875
24320.0 12.128588
24330.0 12.131396
24340.0 12.134172
24350.0 12.137967
24360.0 12.141425
24370.0 12.146248
24380.0 12.152077
24390.0 12.158251
24400.0 12.165183
24410.0 12.171767
24420.0 12.180902
24430.0 12.188366
24440.0 12.195761
24450.0 12.200487
24460.0 12.203202
24470.0 12.205677
24480.0 12.208891
24490.0 12.213020
24500.0 12.217748
24510.0 12.222671
24520.0 12.228638
24530.0 12.235252
24540.0 12.241346
24550.0 12.244596
24560.0 12.247056
24570.0 12.250567
24580.0 12.254692
24590.0 12.255950
24600.0 12.258071
24610.0 12.262268
24620.0 12.267244
24630.0 12.272787
24640.0 12.279025
24650.0 12.285194
24660.0 12.291408
24670.0 12.296741
24680.0 12.301724
24690.0 12.307691
24700.0 12.316261
24710.0 12.325125
24720.0 12.335086
24730.0 12.342439
24740.0 12.349378
24750.0 12.356248
24760.0 12.362275
24770.0 12.368190
24780.0 12.374993
24790.0 12.381328
24800.0 12.387413
24810.0 12.393534
24820.0 12.397874
24830.0 12.401993
24840.0 12.404960
24850.0 12.410506
24860.0 12.414513
24870.0 12.419189
24880.0 12.426320
24890.0 12.431774
24900.0 12.435794
24910.0 12.436940
24920.0 12.437217
24930.0 12.438153
24940.0 12.440841
24950.0 12.444510
24960.0 12.450287
24970.0 12.456888
24980.0 12.464241
24990.0 12.471874
25000.0 12.476733
25010.0 12.480180
25020.0 12.480994
25030.0 12.478914
25040.0 12.475934
25050.0 12.471675
25060.0 12.467684
25070.0 12.464417
25080.0 12.460979
25090.0 12.458037
25100.0 12.454401
25110.0 12.449810
25120.0 12.445519
25130.0 12.441210
25140.0 12.436572
25150.0 12.432660
25160.0 12.428042
25170.0 12.423491
25180.0 12.418930
25190.0 12.414534
25200.0 12.410201
25210.0 12.405551
25220.0 12.401062
25230.0 12.397588
25240.0 12.393156
25250.0 12.390765
25260.0 12.387511
25270.0 12.383737
25280.0 12.379303
25290.0 12.375166
25300.0 12.371045
25310.0 12.366370
25320.0 12.362333
25330.0 12.358860
25340.0 12.354988
25350.0 12.350149
25360.0 12.345628
25370.0 12.342304
25380.0 12.338244
25390.0 12.334508
25400.0 12.334536
25410.0 12.335569
25420.0 12.335665
25430.0 12.336555
25440.0 12.337649
25450.0 12.342093
25460.0 12.345798
25470.0 12.349236
25480.0 12.352470
25490.0 12.355509
25500.0 12.360846
25510.0 12.367370
25520.0 12.371988
25530.0 12.376772
25540.0 12.381358
25550.0 12.386499
25560.0 12.389762
25570.0 12.391789
25580.0 12.394333
25590.0 12.395616
25600.0 12.397848
25610.0 12.400453
25620.0 12.402820
25630.0 12.405795
25640.0 12.408638
25650.0 12.413836
25660.0 12.419903
25670.0 12.426384
25680.0 12.430920
25690.0 12.436165
25700.0 12.443046
25710.0 12.450975
25720.0 12.458912
25730.0 12.465472
25740.0 12.471702
25750.0 12.479048
25760.0 12.485294
25770.0 12.490160
25780.0 12.495797
25790.0 12.501772
25800.0 12.507807
25810.0 12.513284
25820.0 12.518257
25830.0 12.522123
25840.0 12.523818
25850.0 12.523672
25860.0 12.523451
25870.0 12.525420
25880.0 12.529434
25890.0 12.535113
25900.0 12.540548
25910.0 12.548229
25920.0 12.557676
25930.0 12.567736
25940.0 12.574451
25950.0 12.581826
25960.0 12.589010
25970.0 12.593362
25980.0 12.597660
25990.0 12.601691
26000.0 12.606075
26010.0 12.608734
26020.0 12.610596
26030.0 12.613676
26040.0 12.619864
26050.0 12.627282
26060.0 12.632688
26070.0 12.638732
26080.0 12.645256
26090.0 12.651650
26100.0 12.657137
26110.0 12.660830
26120.0 12.665612
26130.0 12.669874
26140.0 12.673788
26150.0 12.676320
26160.0 12.679527
26170.0 12.685709
26180.0 12.693880
26190.0 12.703037
26200.0 12.709932
26210.0 12.716069
26220.0 12.722391
26230.0 12.727948
26240.0 12.734419
26250.0 12.742316
26260.0 12.749426
26270.0 12.754902
26280.0 12.757981
26290.0 12.760153
26300.0 12.762603
26310.0 12.766369
26320.0 12.769338
26330.0 12.772718
26340.0 12.773233
26350.0 12.772892
26360.0 12.773519
26370.0 12.773656
26380.0 12.772487
26390.0 12.771883
26400.0 12.771435
26410.0 12.770107
26420.0 12.768060
26430.0 12.764916
26440.0 12.762142
26450.0 12.759817
26460.0 12.757884
26470.0 12.755484
26480.0 12.751312
26490.0 12.746662
26500.0 12.742236
26510.0 12.738161
26520.0 12.733818
26530.0 12.732868
26540.0 12.733020
26550.0 12.731071
26560.0 12.728805
26570.0 12.727454
26580.0 12.725865
26590.0 12.722472
26600.0 12.717949
26610.0 12.713800
26620.0 12.710286
26630.0 12.706319
26640.0 12.702090
26650.0 12.698167
26660.0 12.693868
26670.0 12.689493
26680.0 12.684940
26690.0 12.682063
26700.0 12.679283
26710.0 12.677706
26720.0 12.676428
26730.0 12.675982
26740.0 12.677021
26750.0 12.676931
26760.0 12.679872
26770.0 12.684019
26780.0 12.686997
26790.0 12.687650
26800.0 12.688560
26810.0 12.687880
26820.0 12.686495
26830.0 12.685632
26840.0 12.685768
26850.0 12.686904
26860.0 12.687354
26870.0 12.688737
26880.0 12.688755
26890.0 12.687246
26900.0 12.683919
26910.0 12.681036
26920.0 12.677425
26930.0 12.674613
26940.0 12.672934
26950.0 12.671920
26960.0 12.670142
26970.0 12.669437
26980.0 12.666065
26990.0 12.662037
27000.0 12.658196
27010.0 12.654874
27020.0 12.651736
27030.0 12.650446
27040.0 12.649518
27050.0 12.649110
27060.0 12.648644
27070.0 12.647491
27080.0 12.644794
27090.0 12.642764
27100.0 12.641545
27110.0 12.638477
27120.0 12.635265
27130.0 12.632550
27140.0 12.630726
27150.0 12.627621
27160.0 12.623357
27170.0 12.618970
27180.0 12.615858
27190.0 12.613611
27200.0 12.610495
27210.0 12.606137
27220.0 12.601701
27230.0 12.598408
27240.0 12.595787
27250.0 12.592424
27260.0 12.590139
27270.0 12.586635
27280.0 12.582457
27290.0 12.578130
27300.0 12.576223
27310.0 12.574145
27320.0 12.573384
27330.0 12.574170
27340.0 12.574029
27350.0 12.575308
27360.0 12.577273
27370.0 12.578828
27380.0 12.580189
27390.0 12.580690
27400.0 12.579706
27410.0 12.578355
27420.0 12.580436
27430.0 12.584173
27440.0 12.586886
27450.0 12.589408
27460.0 12.590483
27470.0 12.591887
27480.0 12.595074
27490.0 12.598634
27500.0 12.601661
27510.0 12.603761
27520.0 12.606063
27530.0 12.608671
27540.0 12.610015
27550.0 12.609441
27560.0 12.609211
27570.0 12.607395
27580.0 12.605815
27590.0 12.604073
27600.0 12.601418
27610.0 12.597361
27620.0 12.594717
27630.0 12.592736
27640.0 12.590765
27650.0 12.589201
27660.0 12.586108
27670.0 12.584785
27680.0 12.582078
27690.0 12.578221
27700.0 12.575064
27710.0 12.571138
27720.0 12.567069
27730.0 12.563063
27740.0 12.559609
27750.0 12.556471
27760.0 12.552476
27770.0 12.548194
27780.0 12.544451
27790.0 12.541925
27800.0 12.541023
27810.0 12.541841
27820.0 12.543659
27830.0 12.546330
27840.0 12.549386
27850.0 12.550815
27860.0 12.550977
27870.0 12.551982
27880.0 12.553928
27890.0 12.558673
27900.0 12.564232
27910.0 12.570690
27920.0 12.576889
27930.0 12.582004
27940.0 12.587713
27950.0 12.593506
27960.0 12.599271
27970.0 12.603206
27980.0 12.607478
27990.0 12.612609
28000.0 12.618189
28010.0 12.624310
28020.0 12.628725
28030.0 12.629643
28040.0 12.628031
28050.0 12.625597
28060.0 12.622365
28070.0 12.618053
28080.0 12.613963
28090.0 12.610353
28100.0 12.606284
28110.0 12.602226
28120.0 12.599420
28130.0 12.596232
28140.0 12.591921
28150.0 12.587966
28160.0 12.586215
28170.0 12.586568
28180.0 12.585326
28190.0 12.584451
28200.0 12.582925
28210.0 12.581572
28220.0 12.579564
28230.0 12.578441
28240.0 12.578845
28250.0 12.580324
28260.0 12.580389
28270.0 12.580775
28280.0 12.582268
28290.0 12.581292
28300.0 12.578908
28310.0 12.576327
28320.0 12.573344
28330.0 12.570614
28340.0 12.567880
28350.0 12.563947
28360.0 12.560804
28370.0 12.556769
28380.0 12.553256
28390.0 12.552149
28400.0 12.550900
28410.0 12.549401
28420.0 12.550505
28430.0 12.553167
28440.0 12.555114
28450.0 12.556689
28460.0 12.559241
28470.0 12.561155
28480.0 12.563975
28490.0 12.567401
28500.0 12.568571
28510.0 12.570561
28520.0 12.572450
28530.0 12.575171
28540.0 12.574245
28550.0 12.571187
28560.0 12.567589
28570.0 12.563391
28580.0 12.559483
28590.0 12.555462
28600.0 12.551215
28610.0 12.547297
28620.0 12.543290
28630.0 12.539240
28640.0 12.535421
28650.0 12.531137
28660.0 12.527184
28670.0 12.523340
28680.0 12.519366
28690.0 12.517238
28700.0 12.515409
28710.0 12.513088
28720.0 12.511041
28730.0 12.507782
28740.0 12.504107
28750.0 12.501008
28760.0 12.497845
28770.0 12.494825
28780.0 12.492585
28790.0 12.488451
28800.0 12.484373
28810.0 12.480919
28820.0 12.476772
28830.0 12.473178
28840.0 12.470168
28850.0 12.467250
28860.0 12.463916
28870.0 12.461796
28880.0 12.460621
28890.0 12.459403
28900.0 12.458231
28910.0 12.457235
28920.0 12.457157
28930.0 12.458045
28940.0 12.459931
28950.0 12.463041
28960.0 12.467856
28970.0 12.472684
28980.0 12.479389
28990.0 12.485790
29000.0 12.492847
29010.0 12.500234
29020.0 12.507963
29030.0 12.515722
29040.0 12.521935
29050.0 12.528935
29060.0 12.536568
29070.0 12.543551
29080.0 12.550280
29090.0 12.557824
29100.0 12.564931
29110.0 12.571422
29120.0 12.579783
29130.0 12.587866
29140.0 12.595456
29150.0 12.603055
29160.0 12.609073
29170.0 12.615196
29180.0 12.621909
29190.0 12.629188
29200.0 12.638292
29210.0 12.646163
29220.0 12.654261
29230.0 12.662702
29240.0 12.669390
29250.0 12.677211
29260.0 12.685987
29270.0 12.695485
29280.0 12.707238
29290.0 12.718406
29300.0 12.730664
29310.0 12.742343
29320.0 12.752572
29330.0 12.762846
29340.0 12.773213
29350.0 12.783781
29360.0 12.794545
29370.0 12.805675
29380.0 12.816726
29390.0 12.827146
29400.0 12.836988
29410.0 12.845341
29420.0 12.854638
29430.0 12.865290
29440.0 12.874591
29450.0 12.884065
29460.0 12.892599
29470.0 12.901662
29480.0 12.910226
29490.0 12.918058
29500.0 12.925429
29510.0 12.932747
29520.0 12.939203
29530.0 12.947211
29540.0 12.953646
29550.0 12.961604
29560.0 12.970031
29570.0 12.980853
29580.0 12.992053
29590.0 13.003635
29600.0 13.016554
29610.0 13.028483
29620.0 13.039810
29630.0 13.051201
29640.0 13.059878
29650.0 13.068335
29660.0 13.077843
29670.0 13.088245
29680.0 13.099558
29690.0 13.112000
29700.0 13.125277
29710.0 13.136788
29720.0 13.147685
29730.0 13.159092
29740.0 13.171828
29750.0 13.186389
29760.0 13.198557
29770.0 13.209715
29780.0 13.221230
29790.0 13.231306
29800.0 13.240303
29810.0 13.249452
29820.0 13.258766
29830.0 13.269020
29840.0 13.279337
29850.0 13.288933
29860.0 13.298606
29870.0 13.308231
29880.0 13.317229
29890.0 13.327202
29900.0 13.338516
29910.0 13.348163
29920.0 13.357031
29930.0 13.364129
29940.0 13.371746
29950.0 13.380133
29960.0 13.390689
29970.0 13.401840
29980.0 13.412822
29990.0 13.423830
30000.0 13.434546
30010.0 13.444533
30020.0 13.453919
30030.0 13.461460
30040.0 13.468317
30050.0 13.475298
30060.0 13.483634
30070.0 13.493367
30080.0 13.503050
30090.0 13.512616
30100.0 13.521627
30110.0 13.529198
30120.0 13.535975
30130.0 13.542842
30140.0 13.548955
30150.0 13.553829
30160.0 13.557062
30170.0 13.559037
30180.0 13.561632
30190.0 13.565730
30200.0 13.571908
30210.0 13.576857
30220.0 13.582566
30230.0 13.587222
30240.0 13.591569
30250.0 13.595980
30260.0 13.600623
30270.0 13.603113
30280.0 13.605386
30290.0 13.608740
30300.0 13.613187
30310.0 13.617043
30320.0 13.619603
30330.0 13.621814
30340.0 13.623139
30350.0 13.623459
30360.0 13.623881
30370.0 13.624853
30380.0 13.626492
30390.0 13.627045
30400.0 13.627982
30410.0 13.627020
30420.0 13.624054
30430.0 13.622428
30440.0 13.618372
30450.0 13.614598
30460.0 13.612393
30470.0 13.610907
30480.0 13.609829
30490.0 13.608545
30500.0 13.608535
30510.0 13.608988
30520.0 13.610242
30530.0 13.608813
30540.0 13.605780
30550.0 13.603060
30560.0 13.598780
30570.0 13.594651
30580.0 13.591479
30590.0 13.588556
30600.0 13.584683
30610.0 13.581669
30620.0 13.579764
30630.0 13.577653
30640.0 13.575793
30650.0 13.573449
30660.0 13.571655
30670.0 13.570273
30680.0 13.570549
30690.0 13.573174
30700.0 13.575548
30710.0 13.579456
30720.0 13.581911
30730.0 13.583058
30740.0 13.584105
30750.0 13.584924
30760.0 13.586111
30770.0 13.587054
30780.0 13.587200
30790.0 13.587205
30800.0 13.587039
30810.0 13.587392
30820.0 13.586437
30830.0 13.587165
30840.0 13.586099
30850.0 13.584678
30860.0 13.583398
30870.0 13.582147
30880.0 13.582693
30890.0 13.583167
30900.0 13.581374
30910.0 13.579729
30920.0 13.579288
30930.0 13.579597
30940.0 13.579808
30950.0 13.580820
30960.0 13.582325
30970.0 13.584697
30980.0 13.586446
30990.0 13.589752
31000.0 13.591018
31010.0 13.593833
31020.0 13.597639
31030.0 13.601939
31040.0 13.605176
31050.0 13.607991
31060.0 13.611154
31070.0 13.614901
31080.0 13.618597
31090.0 13.622823
31100.0 13.627939
31110.0 13.632742
31120.0 13.636759
31130.0 13.640309
31140.0 13.642977
31150.0 13.643718
31160.0 13.642614
31170.0 13.639938
31180.0 13.636694
31190.0 13.632454
31200.0 13.628747
31210.0 13.625158
31220.0 13.623124
31230.0 13.622538
31240.0 13.623415
31250.0 13.622637
31260.0 13.622128
31270.0 13.622751
31280.0 13.624287
31290.0 13.627372
31300.0 13.630731
31310.0 13.633976
31320.0 13.636272
31330.0 13.639942
31340.0 13.641778
31350.0 13.644690
31360.0 13.648280
31370.0 13.650657
31380.0 13.652903
31390.0 13.654307
31400.0 13.657233
31410.0 13.661782
31420.0 13.666669
31430.0 13.670132
31440.0 13.673345
31450.0 13.675684
31460.0 13.675914
31470.0 13.674443
31480.0 13.671906
31490.0 13.668004
31500.0 13.664685
31510.0 13.660810
31520.0 13.656574
31530.0 13.652448
31540.0 13.648658
31550.0 13.644550
31560.0 13.641393
31570.0 13.638550
31580.0 13.636743
31590.0 13.634858
31600.0 13.631578
31610.0 13.629923
31620.0 13.627860
31630.0 13.625343
31640.0 13.623484
31650.0 13.622076
31660.0 13.619803
31670.0 13.615990
31680.0 13.611977
31690.0 13.609014
31700.0 13.605875
31710.0 13.602579
31720.0 13.600987
31730.0 13.598345
31740.0 13.596281
31750.0 13.593743
31760.0 13.590990
31770.0 13.588936
31780.0 13.587184
31790.0 13.584172
31800.0 13.581613
31810.0 13.580970
31820.0 13.580044
31830.0 13.578216
31840.0 13.577046
31850.0 13.578731
31860.0 13.582961
31870.0 13.588378
31880.0 13.592612
31890.0 13.596401
31900.0 13.599014
31910.0 13.602168
31920.0 13.604343
31930.0 13.608157
31940.0 13.613020
31950.0 13.617392
31960.0 13.621342
31970.0 13.625797
31980.0 13.629579
31990.0 13.633604
32000.0 13.637775
32010.0 13.641369
32020.0 13.643455
32030.0 13.644459
32040.0 13.646010
32050.0 13.645911
32060.0 13.646221
32070.0 13.647188
32080.0 13.648599
32090.0 13.650913
32100.0 13.653222
32110.0 13.654649
32120.0 13.654721
32130.0 13.655113
32140.0 13.655464
32150.0 13.654809
32160.0 13.654367
32170.0 13.654869
32180.0 13.656547
32190.0 13.658513
32200.0 13.660080
32210.0 13.661633
32220.0 13.663182
32230.0 13.664958
32240.0 13.665219
32250.0 13.665293
32260.0 13.665631
32270.0 13.664666
32280.0 13.664393
32290.0 13.664339
32300.0 13.663750
32310.0 13.663868
32320.0 13.666018
32330.0 13.668971
32340.0 13.670800
32350.0 13.672596
32360.0 13.673942
32370.0 13.674332
32380.0 13.674902
32390.0 13.676033
32400.0 13.677449
32410.0 13.679861
32420.0 13.682787
32430.0 13.685167
32440.0 13.686827
32450.0 13.686285
32460.0 13.684249
32470.0 13.681949
32480.0 13.679033
32490.0 13.675320
32500.0 13.671362
32510.0 13.668013
32520.0 13.665033
32530.0 13.661670
32540.0 13.657976
32550.0 13.654859
32560.0 13.651865
32570.0 13.647939
32580.0 13.645282
32590.0 13.641818
32600.0 13.640790
32610.0 13.641050
32620.0 13.640140
32630.0 13.637572
32640.0 13.635380
32650.0 13.631828
32660.0 13.628208
32670.0 13.624558
32680.0 13.622273
32690.0 13.619778
32700.0 13.616765
32710.0 13.613430
32720.0 13.612033
32730.0 13.612464
32740.0 13.613052
32750.0 13.612471
32760.0 13.611069
32770.0 13.607987
32780.0 13.604161
32790.0 13.600596
32800.0 13.597924
32810.0 13.595378
32820.0 13.591910
32830.0 13.588899
32840.0 13.585569
32850.0 13.583292
32860.0 13.583541
32870.0 13.585209
32880.0 13.585381
32890.0 13.584452
32900.0 13.582544
32910.0 13.580024
32920.0 13.578146
32930.0 13.576652
32940.0 13.576735
32950.0 13.577252
32960.0 13.579756
32970.0 13.582316
32980.0 13.583685
32990.0 13.585555
33000.0 13.588842
33010.0 13.593091
33020.0 13.597944
33030.0 13.602883
33040.0 13.608600
33050.0 13.614765
33060.0 13.622427
33070.0 13.631057
33080.0 13.640159
33090.0 13.650088
33100.0 13.661854
33110.0 13.674461
33120.0 13.688715
33130.0 13.702078
33140.0 13.711734
33150.0 13.721638
33160.0 13.731221
33170.0 13.739189
33180.0 13.745342
33190.0 13.751156
33200.0 13.757607
33210.0 13.764120
33220.0 13.770927
33230.0 13.777917
33240.0 13.784677
33250.0 13.790072
33260.0 13.792565
33270.0 13.795229
33280.0 13.797353
33290.0 13.799135
33300.0 13.801145
33310.0 13.801875
33320.0 13.800235
33330.0 13.796750
33340.0 13.792888
33350.0 13.789026
33360.0 13.785295
33370.0 13.781669
33380.0 13.777969
33390.0 13.774664
33400.0 13.770783
33410.0 13.768033
33420.0 13.765232
33430.0 13.762050
33440.0 13.759094
33450.0 13.755662
33460.0 13.752534
33470.0 13.751138
33480.0 13.751034
33490.0 13.751351
33500.0 13.751616
33510.0 13.751663
33520.0 13.751593
33530.0 13.752796
33540.0 13.754653
33550.0 13.757489
33560.0 13.759639
33570.0 13.761024
33580.0 13.762979
33590.0 13.765093
33600.0 13.766931
33610.0 13.768770
33620.0 13.771338
33630.0 13.773987
33640.0 13.775786
33650.0 13.777167
33660.0 13.781226
33670.0 13.785451
33680.0 13.790943
33690.0 13.797835
33700.0 13.806020
33710.0 13.814820
33720.0 13.822702
33730.0 13.829775
33740.0 13.836446
33750.0 13.843927
33760.0 13.852371
33770.0 13.859894
33780.0 13.868091
33790.0 13.875286
33800.0 13.881827
33810.0 13.888443
33820.0 13.893200
33830.0 13.898637
33840.0 13.904078
33850.0 13.906821
33860.0 13.909001
33870.0 13.911899
33880.0 13.913068
33890.0 13.914436
33900.0 13.915594
33910.0 13.915149
33920.0 13.913260
33930.0 13.912552
33940.0 13.912576
33950.0 13.914581
33960.0 13.917393
33970.0 13.918635
33980.0 13.919658
33990.0 13.920761
34000.0 13.921158
34010.0 13.921810
34020.0 13.921598
34030.0 13.921063
34040.0 13.922054
34050.0 13.923214
34060.0 13.921674
34070.0 13.919372
34080.0 13.918130
34090.0 13.916778
34100.0 13.913485
34110.0 13.910034
34120.0 13.906649
34130.0 13.902841
34140.0 13.899787
34150.0 13.897598
34160.0 13.896319
34170.0 13.893519
34180.0 13.889992
34190.0 13.886168
34200.0 13.882309
34210.0 13.878574
34220.0 13.874848
34230.0 13.871085
34240.0 13.867218
34250.0 13.863839
34260.0 13.861334
34270.0 13.857982
34280.0 13.854661
34290.0 13.853140
34300.0 13.851031
34310.0 13.849088
34320.0 13.848285
34330.0 13.847800
34340.0 13.848028
34350.0 13.848441
34360.0 13.852513
34370.0 13.857078
34380.0 13.862621
34390.0 13.865684
34400.0 13.869153
34410.0 13.872507
34420.0 13.874195
34430.0 13.877037
34440.0 13.881559
34450.0 13.885965
34460.0 13.890033
34470.0 13.894719
34480.0 13.900699
34490.0 13.905940
34500.0 13.908381
34510.0 13.909934
34520.0 13.911180
34530.0 13.912835
34540.0 13.914550
34550.0 13.915254
34560.0 13.914572
34570.0 13.912317
34580.0 13.909269
34590.0 13.907263
34600.0 13.905750
34610.0 13.904526
34620.0 13.906174
34630.0 13.907590
34640.0 13.908090
34650.0 13.906984
34660.0 13.906018
34670.0 13.905947
34680.0 13.906442
34690.0 13.908630
34700.0 13.910378
34710.0 13.911899
34720.0 13.912937
34730.0 13.913718
34740.0 13.914879
34750.0 13.916751
34760.0 13.918099
34770.0 13.918969
34780.0 13.918879
34790.0 13.919047
34800.0 13.919053
34810.0 13.918043
34820.0 13.918399
34830.0 13.918454
34840.0 13.920357
34850.0 13.922899
34860.0 13.925470
34870.0 13.927924
34880.0 13.929192
34890.0 13.929774
34900.0 13.928632
34910.0 13.925635
34920.0 13.922985
34930.0 13.919644
34940.0 13.916137
34950.0 13.913435
34960.0 13.911913
34970.0 13.910107
34980.0 13.906988
34990.0 13.903496
35000.0 13.900087
35010.0 13.896607
35020.0 13.893927
35030.0 13.890923
35040.0 13.887706
35050.0 13.884266
35060.0 13.881474
35070.0 13.878614
35080.0 13.876090
35090.0 13.873731
35100.0 13.872195
35110.0 13.869452
35120.0 13.865979
35130.0 13.864265
35140.0 13.862606
35150.0 13.862324
35160.0 13.861368
35170.0 13.861508
35180.0 13.863587
35190.0 13.865937
35200.0 13.869945
35210.0 13.874412
35220.0 13.878225
35230.0 13.880522
35240.0 13.882456
35250.0 13.883261
35260.0 13.883479
35270.0 13.883290
35280.0 13.883123
35290.0 13.884154
35300.0 13.887458
35310.0 13.890603
35320.0 13.893372
35330.0 13.897801
35340.0 13.903553
35350.0 13.908607
35360.0 13.913628
35370.0 13.919458
35380.0 13.926123
35390.0 13.933257
35400.0 13.939404
35410.0 13.945483
35420.0 13.952215
35430.0 13.958857
35440.0 13.964214
35450.0 13.968213
35460.0 13.972477
35470.0 13.977022
35480.0 13.980367
35490.0 13.983678
35500.0 13.988564
35510.0 13.993657
35520.0 13.998606
35530.0 14.003883
35540.0 14.008702
35550.0 14.012563
35560.0 14.016193
35570.0 14.020658
35580.0 14.025277
35590.0 14.030502
35600.0 14.037191
35610.0 14.044315
35620.0 14.053849
35630.0 14.062948
35640.0 14.072520
35650.0 14.082999
35660.0 14.094427
35670.0 14.105131
35680.0 14.115750
35690.0 14.127427
35700.0 14.139116
35710.0 14.148905
35720.0 14.157313
35730.0 14.165067
35740.0 14.172561
35750.0 14.180551
35760.0 14.188864
35770.0 14.196714
35780.0 14.205270
35790.0 14.212994
35800.0 14.220074
35810.0 14.224976
35820.0 14.228767
35830.0 14.231083
35840.0 14.235456
35850.0 14.239354
35860.0 14.242801
35870.0 14.246297
35880.0 14.248655
35890.0 14.251367
35900.0 14.254502
35910.0 14.258418
35920.0 14.263530
35930.0 14.268953
35940.0 14.272457
35950.0 14.274993
35960.0 14.277428
35970.0 14.280865
35980.0 14.283745
35990.0 14.286605
36000.0 14.290085
36010.0 14.294106
36020.0 14.296525
36030.0 14.298455
36040.0 14.298620
36050.0 14.298778
36060.0 14.298804
36070.0 14.298119
36080.0 14.298184
36090.0 14.299266
36100.0 14.299028
36110.0 14.298767
36120.0 14.299623
36130.0 14.300158
36140.0 14.302477
36150.0 14.304868
36160.0 14.306689
36170.0 14.307210
36180.0 14.308313
36190.0 14.309839
36200.0 14.309346
36210.0 14.309430
36220.0 14.307893
36230.0 14.305930
36240.0 14.303978
36250.0 14.301404
36260.0 14.298694
36270.0 14.295184
36280.0 14.291359
36290.0 14.288111
36300.0 14.284937
36310.0 14.281557
36320.0 14.279841
36330.0 14.277999
36340.0 14.277811
36350.0 14.278116
36360.0 14.279041
36370.0 14.279553
36380.0 14.279518
36390.0 14.277700
36400.0 14.276328
36410.0 14.274725
36420.0 14.272156
36430.0 14.268684
36440.0 14.265058
36450.0 14.261377
36460.0 14.257631
36470.0 14.253971
36480.0 14.250949
36490.0 14.248260
36500.0 14.245516
36510.0 14.243007
36520.0 14.241844
36530.0 14.239137
36540.0 14.236069
36550.0 14.232578
36560.0 14.228949
36570.0 14.225318
36580.0 14.221669
36590.0 14.218469
36600.0 14.216635
36610.0 14.215099
36620.0 14.212146
36630.0 14.209395
36640.0 14.207655
36650.0 14.207658
36660.0 14.208584
36670.0 14.209061
36680.0 14.209416
36690.0 14.208978
36700.0 14.207957
36710.0 14.206368
36720.0 14.203546
36730.0 14.201528
36740.0 14.200129
36750.0 14.199417
36760.0 14.198971
36770.0 14.198285
36780.0 14.198033
36790.0 14.199295
36800.0 14.200649
36810.0 14.201310
36820.0 14.201464
36830.0 14.201347
36840.0 14.201166
36850.0 14.201889
36860.0 14.202140
36870.0 14.202290
36880.0 14.203467
36890.0 14.205266
36900.0 14.207991
36910.0 14.210063
36920.0 14.212516
36930.0 14.215272
36940.0 14.217859
36950.0 14.220968
36960.0 14.223947
36970.0 14.226169
36980.0 14.227189
36990.0 14.227716
37000.0 14.229348
37010.0 14.230804
37020.0 14.232483
37030.0 14.233330
37040.0 14.233746
37050.0 14.234139
37060.0 14.233973
37070.0 14.234435
37080.0 14.234035
37090.0 14.232463
37100.0 14.229945
37110.0 14.227389
37120.0 14.224196
37130.0 14.223657
37140.0 14.222992
37150.0 14.222002
37160.0 14.220933
37170.0 14.218916
37180.0 14.215892
37190.0 14.213354
37200.0 14.209852
37210.0 14.206438
37220.0 14.203136
37230.0 14.200782
37240.0 14.197825
37250.0 14.194420
37260.0 14.190999
37270.0 14.189395
37280.0 14.187530
37290.0 14.185507
37300.0 14.182369
37310.0 14.178899
37320.0 14.175321
37330.0 14.171676
37340.0 14.168152
37350.0 14.165393
37360.0 14.164181
37370.0 14.162769
37380.0 14.161662
37390.0 14.159330
37400.0 14.155683
37410.0 14.152138
37420.0 14.148591
37430.0 14.145620
37440.0 14.142604
37450.0 14.138969
37460.0 14.136494
37470.0 14.134122
37480.0 14.132183
37490.0 14.130890
37500.0 14.128382
37510.0 14.125579
37520.0 14.122390
37530.0 14.118999
37540.0 14.116993
37550.0 14.115269
37560.0 14.113642
37570.0 14.112836
37580.0 14.111408
37590.0 14.110585
37600.0 14.110753
37610.0 14.112117
37620.0 14.113082
37630.0 14.113576
37640.0 14.114074
37650.0 14.113549
37660.0 14.114368
37670.0 14.116153
37680.0 14.117207
37690.0 14.117856
37700.0 14.118711
37710.0 14.120883
37720.0 14.123158
37730.0 14.124472
37740.0 14.127833
37750.0 14.131125
37760.0 14.132410
37770.0 14.132781
37780.0 14.132613
37790.0 14.133386
37800.0 14.134993
37810.0 14.135047
37820.0 14.132701
37830.0 14.130144
37840.0 14.127750
37850.0 14.126356
37860.0 14.124789
37870.0 14.123077
37880.0 14.121545
37890.0 14.121098
37900.0 14.119125
37910.0 14.117463
37920.0 14.116416
37930.0 14.115327
37940.0 14.113044
37950.0 14.110688
37960.0 14.108870
37970.0 14.106741
37980.0 14.105826
37990.0 14.105188
38000.0 14.104210
38010.0 14.103517
38020.0 14.102777
38030.0 14.103240
38040.0 14.105404
38050.0 14.108563
38060.0 14.111787
38070.0 14.114437
38080.0 14.117977
38090.0 14.119986
38100.0 14.122643
38110.0 14.124496
38120.0 14.126201
38130.0 14.126447
38140.0 14.128216
38150.0 14.132580
38160.0 14.138051
38170.0 14.144359
38180.0 14.150931
38190.0 14.157359
38200.0 14.164495
38210.0 14.171120
38220.0 14.178579
38230.0 14.185915
38240.0 14.193654
38250.0 14.202208
38260.0 14.210682
38270.0 14.218620
38280.0 14.227069
38290.0 14.234756
38300.0 14.242787
38310.0 14.251045
38320.0 14.258333
38330.0 14.264603
38340.0 14.269673
38350.0 14.275461
38360.0 14.282194
38370.0 14.289910
38380.0 14.296915
38390.0 14.302758
38400.0 14.307270
38410.0 14.311115
38420.0 14.316962
38430.0 14.322560
38440.0 14.328164
38450.0 14.333583
38460.0 14.337993
38470.0 14.340098
38480.0 14.341735
38490.0 14.343075
38500.0 14.344448
38510.0 14.346171
38520.0 14.348292
38530.0 14.351017
38540.0 14.351972
38550.0 14.351685
38560.0 14.352414
38570.0 14.353193
38580.0 14.353712
38590.0 14.354157
38600.0 14.354433
38610.0 14.354336
38620.0 14.353496
38630.0 14.352494
38640.0 14.354431
38650.0 14.355458
38660.0 14.355647
38670.0 14.357248
38680.0 14.359926
38690.0 14.363898
38700.0 14.368489
38710.0 14.372506
38720.0 14.376241
38730.0 14.379842
38740.0 14.383541
38750.0 14.387701
38760.0 14.391788
38770.0 14.394829
38780.0 14.396740
38790.0 14.398301
38800.0 14.399408
38810.0 14.399372
38820.0 14.399634
38830.0 14.399553
38840.0 14.399840
38850.0 14.399301
38860.0 14.397413
38870.0 14.394382
38880.0 14.391350
38890.0 14.388414
38900.0 14.385605
38910.0 14.382834
38920.0 14.380981
38930.0 14.379692
38940.0 14.378414
38950.0 14.376251
38960.0 14.372833
38970.0 14.369273
38980.0 14.366528
38990.0 14.363236
39000.0 14.360040
39010.0 14.358281
39020.0 14.355328
39030.0 14.351867
39040.0 14.348821
39050.0 14.345614
39060.0 14.342198
39070.0 14.338991
39080.0 14.335592
39090.0 14.332564
39100.0 14.330016
39110.0 14.327764
39120.0 14.325949
39130.0 14.325054
39140.0 14.323468
39150.0 14.321829
39160.0 14.320180
39170.0 14.317953
39180.0 14.315156
39190.0 14.312315
39200.0 14.309716
39210.0 14.306314
39220.0 14.303205
39230.0 14.300316
39240.0 14.297349
39250.0 14.294626
39260.0 14.291151
39270.0 14.288838
39280.0 14.286430
39290.0 14.283842
39300.0 14.282135
39310.0 14.281576
39320.0 14.281314
39330.0 14.280668
39340.0 14.279715
39350.0 14.278578
39360.0 14.277369
39370.0 14.276714
39380.0 14.275468
39390.0 14.273536
39400.0 14.270809
39410.0 14.268807
39420.0 14.267291
39430.0 14.265220
39440.0 14.263188
39450.0 14.261638
39460.0 14.259198
39470.0 14.257423
39480.0 14.255216
39490.0 14.252008
39500.0 14.248627
39510.0 14.246049
39520.0 14.243757
39530.0 14.240687
39540.0 14.237417
39550.0 14.233878
39560.0 14.230582
39570.0 14.227353
39580.0 14.224215
39590.0 14.221488
39600.0 14.218862
39610.0 14.216377
39620.0 14.215573
39630.0 14.214482
39640.0 14.215106
39650.0 14.216136
39660.0 14.218067
39670.0 14.220093
39680.0 14.221670
39690.0 14.222933
39700.0 14.223605
39710.0 14.223521
39720.0 14.222297
39730.0 14.221320
39740.0 14.219985
39750.0 14.218540
39760.0 14.216607
39770.0 14.214014
39780.0 14.210803
39790.0 14.208062
39800.0 14.204935
39810.0 14.202289
39820.0 14.199318
39830.0 14.197908
39840.0 14.196430
39850.0 14.195577
39860.0 14.194131
39870.0 14.192219
39880.0 14.190368
39890.0 14.187588
39900.0 14.184677
39910.0 14.181756
39920.0 14.178909
39930.0 14.175663
39940.0 14.172317
39950.0 14.168898
39960.0 14.165852
39970.0 14.162607
39980.0 14.159407
39990.0 14.156964
40000.0 14.155307
40010.0 14.155213
40020.0 14.156756
40030.0 14.159498
40040.0 14.161854
40050.0 14.165390
40060.0 14.169680
40070.0 14.173820
40080.0 14.177027
40090.0 14.180872
40100.0 14.185082
40110.0 14.188797
40120.0 14.190784
40130.0 14.192816
40140.0 14.193575
40150.0 14.194560
40160.0 14.194998
40170.0 14.195691
40180.0 14.195877
40190.0 14.195290
40200.0 14.192881
40210.0 14.190054
40220.0 14.187001
40230.0 14.183843
40240.0 14.181058
40250.0 14.179689
40260.0 14.177960
40270.0 14.177202
40280.0 14.176380
40290.0 14.175663
40300.0 14.173165
40310.0 14.170054
40320.0 14.166615
40330.0 14.163226
40340.0 14.160051
40350.0 14.156641
40360.0 14.153552
40370.0 14.150435
40380.0 14.148593
40390.0 14.146945
40400.0 14.145445
40410.0 14.143104
40420.0 14.140108
40430.0 14.138160
40440.0 14.135784
40450.0 14.133053
40460.0 14.132014
40470.0 14.130232
40480.0 14.128355
40490.0 14.125613
40500.0 14.122212
40510.0 14.119019
40520.0 14.115961
40530.0 14.113159
40540.0 14.110095
40550.0 14.106852
40560.0 14.103785
40570.0 14.100566
40580.0 14.098292
40590.0 14.095448
40600.0 14.093006
40610.0 14.091192
40620.0 14.089073
40630.0 14.087255
40640.0 14.085192
40650.0 14.082086
40660.0 14.080655
40670.0 14.079787
40680.0 14.078795
40690.0 14.077822
40700.0 14.076872
40710.0 14.074915
40720.0 14.072126
40730.0 14.069034
40740.0 14.066797
40750.0 14.065101
40760.0 14.062904
40770.0 14.060887
40780.0 14.058061
40790.0 14.055277
40800.0 14.052738
40810.0 14.051448
40820.0 14.049793
40830.0 14.047990
40840.0 14.044883
40850.0 14.042653
40860.0 14.039705
40870.0 14.036515
40880.0 14.034180
40890.0 14.032535
40900.0 14.031272
40910.0 14.030689
40920.0 14.030375
40930.0 14.031046
40940.0 14.032839
40950.0 14.033529
40960.0 14.033764
40970.0 14.034522
40980.0 14.035126
40990.0 14.035534
41000.0 14.035791
41010.0 14.035379
41020.0 14.034769
41030.0 14.033801
41040.0 14.032724
41050.0 14.029829
41060.0 14.027667
41070.0 14.026633
41080.0 14.026051
41090.0 14.024786
41100.0 14.022699
41110.0 14.020078
41120.0 14.017443
41130.0 14.014377
41140.0 14.011908
41150.0 14.011733
41160.0 14.011085
41170.0 14.010092
41180.0 14.009099
41190.0 14.007852
41200.0 14.006571
41210.0 14.005126
41220.0 14.003601
41230.0 14.001679
41240.0 14.000001
41250.0 13.999272
41260.0 13.999466
41270.0 13.999820
41280.0 13.999444
41290.0 13.998513
41300.0 13.996233
41310.0 13.993734
41320.0 13.990746
41330.0 13.988304
41340.0 13.986599
41350.0 13.985267
41360.0 13.983015
41370.0 13.980905
41380.0 13.979540
41390.0 13.977829
41400.0 13.975545
41410.0 13.974239
41420.0 13.972943
41430.0 13.973139
41440.0 13.973012
41450.0 13.972789
41460.0 13.971284
41470.0 13.970034
41480.0 13.969410
41490.0 13.969460
41500.0 13.970579
41510.0 13.971671
41520.0 13.973496
41530.0 13.975038
41540.0 13.975666
41550.0 13.976160
41560.0 13.975636
41570.0 13.974799
41580.0 13.974374
41590.0 13.973969
41600.0 13.972724
41610.0 13.970980
41620.0 13.968420
41630.0 13.966319
41640.0 13.966082
41650.0 13.965893
41660.0 13.964622
41670.0 13.962772
41680.0 13.961864
41690.0 13.959639
41700.0 13.957059
41710.0 13.954413
41720.0 13.951758
41730.0 13.949259
41740.0 13.947210
41750.0 13.944545
41760.0 13.944259
41770.0 13.944703
41780.0 13.942654
41790.0 13.939931
41800.0 13.936803
41810.0 13.933714
41820.0 13.931016
41830.0 13.927949
41840.0 13.925031
41850.0 13.922723
41860.0 13.920515
41870.0 13.919029
41880.0 13.917843
41890.0 13.915230
41900.0 13.912785
41910.0 13.911457
41920.0 13.911076
41930.0 13.911539
41940.0 13.911830
41950.0 13.911311
41960.0 13.912208
41970.0 13.911944
41980.0 13.911475
41990.0 13.910946
42000.0 13.909586
42010.0 13.909089
42020.0 13.909359
42030.0 13.909585
42040.0 13.909060
42050.0 13.909226
42060.0 13.909441
42070.0 13.910229
42080.0 13.910637
42090.0 13.911695
42100.0 13.913209
42110.0 13.914820
42120.0 13.917907
42130.0 13.921944
42140.0 13.927322
42150.0 13.933668
42160.0 13.940315
42170.0 13.947158
42180.0 13.953531
42190.0 13.961790
42200.0 13.971109
42210.0 13.980830
42220.0 13.990489
42230.0 14.000214
42240.0 14.010185
42250.0 14.021494
42260.0 14.032959
42270.0 14.044148
42280.0 14.054444
42290.0 14.066042
42300.0 14.078257
42310.0 14.090066
42320.0 14.100363
42330.0 14.110105
42340.0 14.118840
42350.0 14.128111
42360.0 14.137532
42370.0 14.145936
42380.0 14.152705
42390.0 14.159770
42400.0 14.167309
42410.0 14.174698
42420.0 14.181958
42430.0 14.189153
42440.0 14.195956
42450.0 14.203468
42460.0 14.212207
42470.0 14.221674
42480.0 14.229709
42490.0 14.236799
42500.0 14.243455
42510.0 14.250800
42520.0 14.258425
42530.0 14.265570
42540.0 14.273349
42550.0 14.282336
42560.0 14.291117
42570.0 14.299979
42580.0 14.308674
42590.0 14.318719
42600.0 14.327560
42610.0 14.336550
42620.0 14.345912
42630.0 14.355392
42640.0 14.365059
42650.0 14.375607
42660.0 14.385817
42670.0 14.392804
42680.0 14.399349
42690.0 14.406128
42700.0 14.413406
42710.0 14.419359
42720.0 14.427169
42730.0 14.435556
42740.0 14.443544
42750.0 14.450755
42760.0 14.459350
42770.0 14.468179
42780.0 14.478200
42790.0 14.487610
42800.0 14.497248
42810.0 14.507137
42820.0 14.515953
42830.0 14.524807
42840.0 14.534744
42850.0 14.544427
42860.0 14.552405
42870.0 14.558823
42880.0 14.565523
42890.0 14.571627
42900.0 14.577911
42910.0 14.583655
42920.0 14.589189
42930.0 14.592755
42940.0 14.594168
42950.0 14.594322
42960.0 14.594674
42970.0 14.595714
42980.0 14.597146
42990.0 14.597463
43000.0 14.597176
43010.0 14.598282
43020.0 14.598088
43030.0 14.596455
43040.0 14.594706
43050.0 14.594175
43060.0 14.593022
43070.0 14.591473
43080.0 14.590216
43090.0 14.588710
43100.0 14.587649
43110.0 14.586856
43120.0 14.586361
43130.0 14.584762
43140.0 14.583303
43150.0 14.581764
43160.0 14.580702
43170.0 14.581227
43180.0 14.581824
43190.0 14.582920
43200.0 14.584048
43210.0 14.585523
43220.0 14.587024
43230.0 14.587650
43240.0 14.587232
43250.0 14.587107
43260.0 14.586748
43270.0 14.585717
43280.0 14.586216
43290.0 14.586786
43300.0 14.587981
43310.0 14.589655
43320.0 14.591159
43330.0 14.591727
43340.0 14.590389
43350.0 14.587185
43360.0 14.583939
43370.0 14.581341
43380.0 14.579214
43390.0 14.576967
43400.0 14.573681
43410.0 14.570806
43420.0 14.568449
43430.0 14.566981
43440.0 14.565582
43450.0 14.563510
43460.0 14.560855
43470.0 14.557930
43480.0 14.554701
43490.0 14.551805
43500.0 14.549188
43510.0 14.547206
43520.0 14.545484
43530.0 14.546291
43540.0 14.548538
43550.0 14.551382
43560.0 14.555462
43570.0 14.559298
43580.0 14.561978
43590.0 14.564673
43600.0 14.566443
43610.0 14.567862
43620.0 14.567981
43630.0 14.566216
43640.0 14.564178
43650.0 14.561565
43660.0 14.559418
43670.0 14.556975
43680.0 14.554403
43690.0 14.551970
43700.0 14.548842
43710.0 14.545968
43720.0 14.543852
43730.0 14.541769
43740.0 14.539372
43750.0 14.536777
43760.0 14.534679
43770.0 14.533463
43780.0 14.530595
43790.0 14.527660
43800.0 14.524457
43810.0 14.521400
43820.0 14.518457
43830.0 14.515552
43840.0 14.512803
43850.0 14.510430
43860.0 14.507323
43870.0 14.504676
43880.0 14.503486
43890.0 14.503421
43900.0 14.503864
43910.0 14.504443
43920.0 14.505525
43930.0 14.506079
43940.0 14.505823
43950.0 14.505488
43960.0 14.505166
43970.0 14.504087
43980.0 14.504007
43990.0 14.505165
44000.0 14.507360
44010.0 14.510146
44020.0 14.513059
44030.0 14.515813
44040.0 14.516842
44050.0 14.518606
44060.0 14.520244
44070.0 14.521845
44080.0 14.524205
44090.0 14.526602
44100.0 14.528819
44110.0 14.530314
44120.0 14.531535
44130.0 14.533036
44140.0 14.534978
44150.0 14.538328
44160.0 14.541297
44170.0 14.545437
44180.0 14.549325
44190.0 14.552186
44200.0 14.554741
44210.0 14.556523
44220.0 14.559718
44230.0 14.562508
44240.0 14.564082
44250.0 14.564640
44260.0 14.564433
44270.0 14.563385
44280.0 14.561992
44290.0 14.561301
44300.0 14.561567
44310.0 14.561637
44320.0 14.560154
44330.0 14.557227
44340.0 14.554052
44350.0 14.551107
44360.0 14.548679
44370.0 14.546549
44380.0 14.544989
44390.0 14.542023
44400.0 14.539346
44410.0 14.536692
44420.0 14.533906
44430.0 14.531112
44440.0 14.528286
44450.0 14.525145
44460.0 14.522079
44470.0 14.519338
44480.0 14.516639
44490.0 14.513776
44500.0 14.511202
44510.0 14.508492
44520.0 14.505307
44530.0 14.502331
44540.0 14.499795
44550.0 14.497394
44560.0 14.494707
44570.0 14.492287
44580.0 14.490435
44590.0 14.488902
44600.0 14.486671
44610.0 14.484257
44620.0 14.481352
44630.0 14.479679
44640.0 14.478811
44650.0 14.478442
44660.0 14.479563
44670.0 14.480345
44680.0 14.479880
44690.0 14.477257
44700.0 14.474352
44710.0 14.471269
44720.0 14.468956
44730.0 14.466535
44740.0 14.464311
44750.0 14.462485
44760.0 14.459725
44770.0 14.457206
44780.0 14.456704
44790.0 14.456314
44800.0 14.456592
44810.0 14.456954
44820.0 14.456903
44830.0 14.458835
44840.0 14.460463
44850.0 14.462757
44860.0 14.465572
44870.0 14.468578
44880.0 14.471550
44890.0 14.473863
44900.0 14.474759
44910.0 14.473828
44920.0 14.472065
44930.0 14.469289
44940.0 14.466611
44950.0 14.464744
44960.0 14.462168
44970.0 14.459070
44980.0 14.456728
44990.0 14.455260
45000.0 14.454072
45010.0 14.452736
45020.0 14.451249
45030.0 14.450589
45040.0 14.449801
45050.0 14.448723
45060.0 14.448026
45070.0 14.446916
45080.0 14.445551
45090.0 14.443963
45100.0 14.443520
45110.0 14.443503
45120.0 14.442723
45130.0 14.440630
45140.0 14.438326
45150.0 14.435937
45160.0 14.433499
45170.0 14.430482
45180.0 14.428320
45190.0 14.425301
45200.0 14.422256
45210.0 14.419170
45220.0 14.416289
45230.0 14.414146
45240.0 14.412801
45250.0 14.412359
45260.0 14.411737
45270.0 14.411980
45280.0 14.411916
45290.0 14.410503
45300.0 14.409054
45310.0 14.407970
45320.0 14.407304
45330.0 14.407144
45340.0 14.407348
45350.0 14.407402
45360.0 14.407846
45370.0 14.409612
45380.0 14.411810
45390.0 14.414350
45400.0 14.415836
45410.0 14.417288
45420.0 14.418746
45430.0 14.419308
45440.0 14.419469
45450.0 14.419490
45460.0 14.418284
45470.0 14.416684
45480.0 14.418003
45490.0 14.419397
45500.0 14.420452
45510.0 14.421798
45520.0 14.422134
45530.0 14.422745
45540.0 14.423087
45550.0 14.423427
45560.0 14.422652
45570.0 14.421598
45580.0 14.420663
45590.0 14.418916
45600.0 14.417923
45610.0 14.416169
45620.0 14.413680
45630.0 14.410725
45640.0 14.407652
45650.0 14.404686
45660.0 14.402378
45670.0 14.400420
45680.0 14.398443
45690.0 14.397049
45700.0 14.395076
45710.0 14.393124
45720.0 14.391997
45730.0 14.391345
45740.0 14.390328
45750.0 14.387802
45760.0 14.385027
45770.0 14.382775
45780.0 14.381353
45790.0 14.378894
45800.0 14.376334
45810.0 14.374372
45820.0 14.373011
45830.0 14.371459
45840.0 14.369825
45850.0 14.367945
45860.0 14.366766
45870.0 14.365565
45880.0 14.364642
45890.0 14.364736
45900.0 14.365882
45910.0 14.367444
45920.0 14.368984
45930.0 14.369584
45940.0 14.370357
45950.0 14.371833
45960.0 14.373726
45970.0 14.375865
45980.0 14.376077
45990.0 14.375465
46000.0 14.374780
46010.0 14.374447
46020.0 14.374697
46030.0 14.374853
46040.0 14.374835
46050.0 14.375075
46060.0 14.375361
46070.0 14.374922
46080.0 14.375554
46090.0 14.376494
46100.0 14.377460
46110.0 14.377138
46120.0 14.376490
46130.0 14.375038
46140.0 14.373569
46150.0 14.372344
46160.0 14.371221
46170.0 14.371074
46180.0 14.371546
46190.0 14.372276
46200.0 14.371784
46210.0 14.370175
46220.0 14.368091
46230.0 14.366325
46240.0 14.365687
46250.0 14.365589
46260.0 14.365140
46270.0 14.365396
46280.0 14.365778
46290.0 14.367274
46300.0 14.368891
46310.0 14.371101
46320.0 14.372987
46330.0 14.373366
46340.0 14.373276
46350.0 14.373283
46360.0 14.373897
46370.0 14.373874
46380.0 14.373847
46390.0 14.373346
46400.0 14.371939
46410.0 14.371138
46420.0 14.370895
46430.0 14.372346
46440.0 14.375433
46450.0 14.377523
46460.0 14.379096
46470.0 14.378362
46480.0 14.377358
46490.0 14.375965
46500.0 14.375260
46510.0 14.376183
46520.0 14.378311
46530.0 14.380558
46540.0 14.382221
46550.0 14.383328
46560.0 14.383466
46570.0 14.383494
46580.0 14.383467
46590.0 14.384398
46600.0 14.385319
46610.0 14.387325
46620.0 14.390205
46630.0 14.392078
46640.0 14.393298
46650.0 14.394139
46660.0 14.394954
46670.0 14.394949
46680.0 14.394379
46690.0 14.392314
46700.0 14.390377
46710.0 14.387801
46720.0 14.384822
46730.0 14.382434
46740.0 14.379954
46750.0 14.377107
46760.0 14.374329
46770.0 14.372408
46780.0 14.370671
46790.0 14.370412
46800.0 14.371428
46810.0 14.370999
46820.0 14.369058
46830.0 14.366431
46840.0 14.363623
46850.0 14.360884
46860.0 14.358198
46870.0 14.355613
46880.0 14.354464
46890.0 14.354057
46900.0 14.353926
46910.0 14.353677
46920.0 14.353447
46930.0 14.352958
46940.0 14.351428
46950.0 14.348717
46960.0 14.346373
46970.0 14.343413
46980.0 14.340569
46990.0 14.337642
47000.0 14.334888
47010.0 14.332174
47020.0 14.330770
47030.0 14.330417
47040.0 14.330741
47050.0 14.330082
47060.0 14.328538
47070.0 14.326996
47080.0 14.325397
47090.0 14.323126
47100.0 14.320520
47110.0 14.319016
47120.0 14.318036
47130.0 14.317606
47140.0 14.316429
47150.0 14.316055
47160.0 14.316723
47170.0 14.318057
47180.0 14.319317
47190.0 14.319984
47200.0 14.319952
47210.0 14.318647
47220.0 14.318327
47230.0 14.319060
47240.0 14.320181
47250.0 14.321318
47260.0 14.322963
47270.0 14.323968
47280.0 14.324250
47290.0 14.324918
47300.0 14.325249
47310.0 14.324601
47320.0 14.323935
47330.0 14.323417
47340.0 14.323605
47350.0 14.324399
47360.0 14.326036
47370.0 14.327415
47380.0 14.328821
47390.0 14.329596
47400.0 14.330215
47410.0 14.330188
47420.0 14.329431
47430.0 14.328470
47440.0 14.328077
47450.0 14.327653
47460.0 14.325854
47470.0 14.323562
47480.0 14.321227
47490.0 14.318715
47500.0 14.315889
47510.0 14.313496
47520.0 14.311799
47530.0 14.309507
47540.0 14.307080
47550.0 14.304757
47560.0 14.302716
47570.0 14.300839
47580.0 14.299387
47590.0 14.298348
47600.0 14.296983
47610.0 14.295599
47620.0 14.292768
47630.0 14.290572
47640.0 14.287955
47650.0 14.285714
47660.0 14.283366
47670.0 14.282325
47680.0 14.281869
47690.0 14.281188
47700.0 14.281269
47710.0 14.281345
47720.0 14.280557
47730.0 14.279726
47740.0 14.280003
47750.0 14.281547
47760.0 14.283074
47770.0 14.286749
47780.0 14.291085
47790.0 14.296435
47800.0 14.300895
47810.0 14.304686
47820.0 14.306533
47830.0 14.309125
47840.0 14.312171
47850.0 14.316010
47860.0 14.320672
47870.0 14.325528
47880.0 14.330905
47890.0 14.334960
47900.0 14.338392
47910.0 14.341556
47920.0 14.344428
47930.0 14.347527
47940.0 14.349709
47950.0 14.350764
47960.0 14.352150
47970.0 14.352913
47980.0 14.353626
47990.0 14.354309
48000.0 14.354321
48010.0 14.354370
48020.0 14.353664
48030.0 14.352903
48040.0 14.351834
48050.0 14.350044
48060.0 14.348287
48070.0 14.346958
48080.0 14.346319
48090.0 14.346487
48100.0 14.348271
48110.0 14.350521
48120.0 14.351392
48130.0 14.352307
48140.0 14.352499
48150.0 14.353809
48160.0 14.355083
48170.0 14.356077
48180.0 14.355891
48190.0 14.356481
48200.0 14.356897
48210.0 14.356477
48220.0 14.356619
48230.0 14.357914
48240.0 14.360417
48250.0 14.362603
48260.0 14.363742
48270.0 14.365416
48280.0 14.366833
48290.0 14.367895
48300.0 14.368479
48310.0 14.368182
48320.0 14.368912
48330.0 14.369997
48340.0 14.370350
48350.0 14.369568
48360.0 14.369075
48370.0 14.367663
48380.0 14.365654
48390.0 14.363185
48400.0 14.361689
48410.0 14.360670
48420.0 14.359789
48430.0 14.359442
48440.0 14.359730
48450.0 14.361224
48460.0 14.362109
48470.0 14.363143
48480.0 14.364202
48490.0 14.365630
48500.0 14.367289
48510.0 14.368651
48520.0 14.370186
48530.0 14.370426
48540.0 14.370297
48550.0 14.369689
48560.0 14.369617
48570.0 14.370063
48580.0 14.370965
48590.0 14.370729
48600.0 14.369576
48610.0 14.367978
48620.0 14.365621
48630.0 14.364256
48640.0 14.362964
48650.0 14.361626
48660.0 14.359315
48670.0 14.356665
48680.0 14.355104
48690.0 14.353028
48700.0 14.350401
48710.0 14.347894
48720.0 14.345475
48730.0 14.343959
48740.0 14.341964
48750.0 14.340005
48760.0 14.338475
48770.0 14.337206
48780.0 14.335608
48790.0 14.334078
48800.0 14.332746
48810.0 14.330283
48820.0 14.327626
48830.0 14.324777
48840.0 14.322344
48850.0 14.319616
48860.0 14.316916
48870.0 14.314241
48880.0 14.311592
48890.0 14.310181
48900.0 14.310033
48910.0 14.310200
48920.0 14.309751
48930.0 14.308844
48940.0 14.308781
48950.0 14.308098
48960.0 14.308141
48970.0 14.308366
48980.0 14.308880
48990.0 14.309564
49000.0 14.309347
49010.0 14.307990
49020.0 14.307268
49030.0 14.306599
49040.0 14.305601
49050.0 14.304960
49060.0 14.304273
49070.0 14.303371
49080.0 14.301734
49090.0 14.299703
49100.0 14.298065
49110.0 14.296837
49120.0 14.295741
49130.0 14.294913
49140.0 14.294090
49150.0 14.293082
49160.0 14.291505
49170.0 14.289895
49180.0 14.287775
49190.0 14.285258
49200.0 14.283463
49210.0 14.282574
49220.0 14.280728
49230.0 14.279155
49240.0 14.277745
49250.0 14.277213
49260.0 14.277373
49270.0 14.278352
49280.0 14.279599
49290.0 14.280632
49300.0 14.281149
49310.0 14.281626
49320.0 14.281739
49330.0 14.281641
49340.0 14.280335
49350.0 14.279185
49360.0 14.277218
49370.0 14.275089
49380.0 14.272477
49390.0 14.270298
49400.0 14.267497
49410.0 14.265103
49420.0 14.262968
49430.0 14.261540
49440.0 14.261040
49450.0 14.260678
49460.0 14.260685
49470.0 14.260046
49480.0 14.258645
49490.0 14.256196
49500.0 14.254033
49510.0 14.251365
49520.0 14.248696
49530.0 14.246114
49540.0 14.243690
49550.0 14.242531
49560.0 14.241446
49570.0 14.240860
49580.0 14.240847
49590.0 14.240382
49600.0 14.240516
49610.0 14.242181
49620.0 14.244743
49630.0 14.247596
49640.0 14.251830
49650.0 14.256078
49660.0 14.259852
49670.0 14.264023
49680.0 14.268478
49690.0 14.274123
49700.0 14.279503
49710.0 14.283585
49720.0 14.288512
49730.0 14.295356
49740.0 14.301557
49750.0 14.309022
49760.0 14.317342
49770.0 14.326291
49780.0 14.335335
49790.0 14.344532
49800.0 14.354273
49810.0 14.365278
49820.0 14.375905
49830.0 14.386866
49840.0 14.397769
49850.0 14.408010
49860.0 14.417438
49870.0 14.426170
49880.0 14.433619
49890.0 14.440738
49900.0 14.447671
49910.0 14.454068
49920.0 14.459452
49930.0 14.463896
49940.0 14.467930
49950.0 14.471717
49960.0 14.475757
49970.0 14.479386
49980.0 14.482745
49990.0 14.486304
50000.0 14.490472
50010.0 14.493537
50020.0 14.497382
50030.0 14.501768
50040.0 14.506125
50050.0 14.511698
50060.0 14.517214
50070.0 14.521830
50080.0 14.526223
50090.0 14.531359
50100.0 14.536582
50110.0 14.541552
50120.0 14.548304
50130.0 14.555543
50140.0 14.562322
50150.0 14.569194
50160.0 14.576631
50170.0 14.584345
50180.0 14.591799
50190.0 14.598715
50200.0 14.604925
50210.0 14.610828
50220.0 14.618089
50230.0 14.627110
50240.0 14.636614
50250.0 14.645155
50260.0 14.652732
50270.0 14.659465
50280.0 14.666091
50290.0 14.672305
50300.0 14.678075
50310.0 14.682359
50320.0 14.686093
50330.0 14.690499
50340.0 14.695615
50350.0 14.701148
50360.0 14.706701
50370.0 14.711566
50380.0 14.716743
50390.0 14.721438
50400.0 14.725711
50410.0 14.729225
50420.0 14.732472
50430.0 14.736606
50440.0 14.739705
50450.0 14.742406
50460.0 14.745097
50470.0 14.747473
50480.0 14.749385
50490.0 14.751501
50500.0 14.753349
50510.0 14.754836
50520.0 14.755852
50530.0 14.756302
50540.0 14.756599
50550.0 14.757977
50560.0 14.759637
50570.0 14.760551
50580.0 14.761940
50590.0 14.763343
50600.0 14.765293
50610.0 14.766930
50620.0 14.768444
50630.0 14.769218
50640.0 14.769802
50650.0 14.769840
50660.0 14.769343
50670.0 14.767168
50680.0 14.764407
50690.0 14.761796
50700.0 14.759260
50710.0 14.757699
50720.0 14.756370
50730.0 14.756403
50740.0 14.756554
50750.0 14.757145
50760.0 14.759016
50770.0 14.759770
50780.0 14.760481
50790.0 14.761175
50800.0 14.761355
50810.0 14.761762
50820.0 14.763130
50830.0 14.764983
50840.0 14.766735
50850.0 14.768238
50860.0 14.768530
50870.0 14.768059
50880.0 14.767080
50890.0 14.766465
50900.0 14.764808
50910.0 14.763234
50920.0 14.761894
50930.0 14.761606
50940.0 14.760465
50950.0 14.759175
50960.0 14.758201
50970.0 14.756699
50980.0 14.754502
50990.0 14.752327
51000.0 14.750930
51010.0 14.750117
51020.0 14.749539
51030.0 14.748815
51040.0 14.746688
51050.0 14.744125
51060.0 14.741695
51070.0 14.739587
51080.0 14.737469
51090.0 14.736238
51100.0 14.734309
51110.0 14.731954
51120.0 14.729270
51130.0 14.726667
51140.0 14.724056
51150.0 14.722214
51160.0 14.720389
51170.0 14.718913
51180.0 14.717210
51190.0 14.716248
51200.0 14.715170
51210.0 14.715830
51220.0 14.716776
51230.0 14.717277
51240.0 14.717526
51250.0 14.717853
51260.0 14.718685
51270.0 14.719119
51280.0 14.718991
51290.0 14.718946
51300.0 14.717655
51310.0 14.715934
51320.0 14.714679
51330.0 14.713891
51340.0 14.713434
51350.0 14.714255
51360.0 14.715398
51370.0 14.717789
51380.0 14.720845
51390.0 14.723357
51400.0 14.726254
51410.0 14.728829
51420.0 14.731673
51430.0 14.733602
51440.0 14.736060
51450.0 14.738658
51460.0 14.741511
51470.0 14.743454
51480.0 14.744492
51490.0 14.745139
51500.0 14.745480
51510.0 14.744780
51520.0 14.742562
51530.0 14.739873
51540.0 14.737888
51550.0 14.735772
51560.0 14.733459
51570.0 14.731882
51580.0 14.729869
51590.0 14.727994
51600.0 14.725479
51610.0 14.723236
51620.0 14.720619
51630.0 14.718112
51640.0 14.715412
51650.0 14.713041
51660.0 14.710457
51670.0 14.708073
51680.0 14.707229
51690.0 14.706172
51700.0 14.703522
51710.0 14.700869
51720.0 14.698528
51730.0 14.697091
51740.0 14.695779
51750.0 14.696045
51760.0 14.697121
51770.0 14.697747
51780.0 14.696909
51790.0 14.696459
51800.0 14.696255
51810.0 14.695794
51820.0 14.694633
51830.0 14.693195
51840.0 14.692604
51850.0 14.691916
51860.0 14.690705
51870.0 14.689886
51880.0 14.689143
51890.0 14.687795
51900.0 14.686313
51910.0 14.686654
51920.0 14.686712
51930.0 14.686051
51940.0 14.684935
51950.0 14.683194
51960.0 14.680451
51970.0 14.677718
51980.0 14.675024
51990.0 14.672392
52000.0 14.670491
52010.0 14.669200
52020.0 14.667154
52030.0 14.664427
52040.0 14.661788
52050.0 14.659192
52060.0 14.656724
52070.0 14.654328
52080.0 14.651721
52090.0 14.650262
52100.0 14.647664
52110.0 14.645121
52120.0 14.642565
52130.0 14.640157
52140.0 14.637569
52150.0 14.636293
52160.0 14.634474
52170.0 14.632199
52180.0 14.630216
52190.0 14.627704
52200.0 14.625152
52210.0 14.622640
52220.0 14.620118
52230.0 14.618198
52240.0 14.616408
52250.0 14.614564
52260.0 14.612411
52270.0 14.610017
52280.0 14.607691
52290.0 14.605409
52300.0 14.602710
52310.0 14.600421
52320.0 14.598982
52330.0 14.596714
52340.0 14.594659
52350.0 14.593327
52360.0 14.593250
52370.0 14.593604
52380.0 14.594343
52390.0 14.595278
52400.0 14.595989
52410.0 14.596553
52420.0 14.597631
52430.0 14.599739
52440.0 14.602503
52450.0 14.604668
52460.0 14.606971
52470.0 14.608328
52480.0 14.609616
52490.0 14.610369
52500.0 14.611189
52510.0 14.610957
52520.0 14.610483
52530.0 14.610733
52540.0 14.611424
52550.0 14.611543
52560.0 14.610152
52570.0 14.607802
52580.0 14.605676
52590.0 14.603982
52600.0 14.602136
52610.0 14.599467
52620.0 14.597380
52630.0 14.594719
52640.0 14.592758
52650.0 14.591402
52660.0 14.590506
52670.0 14.589857
52680.0 14.589216
52690.0 14.588336
52700.0 14.586647
52710.0 14.584483
52720.0 14.582570
52730.0 14.581393
52740.0 14.580610
52750.0 14.579352
52760.0 14.577590
52770.0 14.576746
52780.0 14.575864
52790.0 14.574487
52800.0 14.574005
52810.0 14.574149
52820.0 14.573748
52830.0 14.571649
52840.0 14.569363
52850.0 14.567279
52860.0 14.564707
52870.0 14.562266
52880.0 14.559709
52890.0 14.557386
52900.0 14.555824
52910.0 14.554650
52920.0 14.553608
52930.0 14.553063
52940.0 14.552801
52950.0 14.552836
52960.0 14.553027
52970.0 14.553711
52980.0 14.554592
52990.0 14.554376
53000.0 14.553847
53010.0 14.552194
53020.0 14.550615
53030.0 14.550535
53040.0 14.550398
53050.0 14.549385
53060.0 14.549503
53070.0 14.548842
53080.0 14.548586
53090.0 14.548409
53100.0 14.547028
53110.0 14.544873
53120.0 14.542704
53130.0 14.540061
53140.0 14.538706
53150.0 14.537645
53160.0 14.535587
53170.0 14.532960
53180.0 14.530703
53190.0 14.529121
53200.0 14.527774
53210.0 14.526969
53220.0 14.526666
53230.0 14.525850
53240.0 14.523628
53250.0 14.521161
53260.0 14.518819
53270.0 14.518131
53280.0 14.517168
53290.0 14.516893
53300.0 14.516672
53310.0 14.515336
53320.0 14.513336
53330.0 14.510967
53340.0 14.508547
53350.0 14.506242
53360.0 14.503582
53370.0 14.501513
53380.0 14.500702
53390.0 14.499458
53400.0 14.498852
53410.0 14.498167
53420.0 14.496934
53430.0 14.495192
53440.0 14.493404
53450.0 14.492408
53460.0 14.491467
53470.0 14.489841
53480.0 14.487201
53490.0 14.484770
53500.0 14.482139
53510.0 14.479519
53520.0 14.477167
53530.0 14.475259
53540.0 14.474029
53550.0 14.472566
53560.0 14.470853
53570.0 14.468762
53580.0 14.467675
53590.0 14.466601
53600.0 14.465624
53610.0 14.464970
53620.0 14.464933
53630.0 14.466349
53640.0 14.468391
53650.0 14.469311
53660.0 14.470139
53670.0 14.470582
53680.0 14.471138
53690.0 14.470963
53700.0 14.470001
53710.0 14.468697
53720.0 14.467801
53730.0 14.466416
53740.0 14.464585
53750.0 14.462606
53760.0 14.460037
53770.0 14.458130
53780.0 14.455842
53790.0 14.454145
53800.0 14.452382
53810.0 14.450695
53820.0 14.448829
53830.0 14.446576
53840.0 14.443992
53850.0 14.441434
53860.0 14.439149
53870.0 14.437417
53880.0 14.435825
53890.0 14.434054
53900.0 14.432420
53910.0 14.430504
53920.0 14.428275
53930.0 14.425770
53940.0 14.423478
53950.0 14.422105
53960.0 14.420705
53970.0 14.419055
53980.0 14.416832
53990.0 14.414354
54000.0 14.412111
54010.0 14.411096
54020.0 14.410167
54030.0 14.408998
54040.0 14.407716
54050.0 14.407130
54060.0 14.406859
54070.0 14.406045
54080.0 14.404696
54090.0 14.403183
54100.0 14.401183
54110.0 14.399527
54120.0 14.397535
54130.0 14.395336
54140.0 14.392729
54150.0 14.390332
54160.0 14.387791
54170.0 14.385307
54180.0 14.383039
54190.0 14.380875
54200.0 14.379072
54210.0 14.376796
54220.0 14.374545
54230.0 14.372882
54240.0 14.371007
54250.0 14.368634
54260.0 14.367544
54270.0 14.367145
54280.0 14.367490
54290.0 14.367002
54300.0 14.365346
54310.0 14.363273
54320.0 14.360861
54330.0 14.359024
54340.0 14.357595
54350.0 14.356437
54360.0 14.354729
54370.0 14.352931
54380.0 14.350825
54390.0 14.349132
54400.0 14.347492
54410.0 14.346669
54420.0 14.346252
54430.0 14.345894
54440.0 14.346099
54450.0 14.346933
54460.0 14.347783
54470.0 14.348868
54480.0 14.349882
54490.0 14.350820
54500.0 14.351799
54510.0 14.352750
54520.0 14.353625
54530.0 14.353941
54540.0 14.354271
54550.0 14.354076
54560.0 14.354619
54570.0 14.355942
54580.0 14.357121
54590.0 14.359472
54600.0 14.363196
54610.0 14.367677
54620.0 14.372242
54630.0 14.375231
54640.0 14.378256
54650.0 14.381166
54660.0 14.384212
54670.0 14.388422
54680.0 14.392823
54690.0 14.396785
54700.0 14.399469
54710.0 14.401731
54720.0 14.403724
54730.0 14.405446
54740.0 14.407332
54750.0 14.408910
54760.0 14.409851
54770.0 14.410784
54780.0 14.411208
54790.0 14.411782
54800.0 14.411692
54810.0 14.409615
54820.0 14.407052
54830.0 14.404712
54840.0 14.402895
54850.0 14.401427
54860.0 14.399795
54870.0 14.397890
54880.0 14.395498
54890.0 14.393167
54900.0 14.392123
54910.0 14.392022
54920.0 14.391368
54930.0 14.390120
54940.0 14.388293
54950.0 14.386133
54960.0 14.384004
54970.0 14.381822
54980.0 14.379583
54990.0 14.377499
55000.0 14.375361
55010.0 14.373575
55020.0 14.372164
55030.0 14.370059
55040.0 14.367990
55050.0 14.365991
55060.0 14.364113
55070.0 14.362815
55080.0 14.362090
55090.0 14.360370
55100.0 14.358861
55110.0 14.358639
55120.0 14.358458
55130.0 14.358041
55140.0 14.357874
55150.0 14.357938
55160.0 14.358632
55170.0 14.358679
55180.0 14.358680
55190.0 14.358400
55200.0 14.357536
55210.0 14.356120
55220.0 14.354582
55230.0 14.352717
55240.0 14.350395
55250.0 14.347877
55260.0 14.345571
55270.0 14.343496
55280.0 14.342839
55290.0 14.341318
55300.0 14.338961
55310.0 14.336718
55320.0 14.334381
55330.0 14.332257
55340.0 14.330157
55350.0 14.327664
55360.0 14.325284
55370.0 14.323547
55380.0 14.321863
55390.0 14.319696
55400.0 14.317292
55410.0 14.314878
55420.0 14.312587
55430.0 14.310811
55440.0 14.310139
55450.0 14.310576
55460.0 14.311501
55470.0 14.312206
55480.0 14.313108
55490.0 14.312463
55500.0 14.311668
55510.0 14.310052
55520.0 14.308041
55530.0 14.306460
55540.0 14.305249
55550.0 14.303641
55560.0 14.301638
55570.0 14.300243
55580.0 14.298516
55590.0 14.296448
55600.0 14.294437
55610.0 14.292317
55620.0 14.289945
55630.0 14.287660
55640.0 14.285604
55650.0 14.283895
55660.0 14.281880
55670.0 14.279553
55680.0 14.277238
55690.0 14.274830
55700.0 14.272946
55710.0 14.270861
55720.0 14.268998
55730.0 14.267355
55740.0 14.265778
55750.0 14.265099
55760.0 14.265085
55770.0 14.264462
55780.0 14.262863
55790.0 14.261303
55800.0 14.259146
55810.0 14.257187
55820.0 14.254943
55830.0 14.252908
55840.0 14.251120
55850.0 14.249406
55860.0 14.248166
55870.0 14.247023
55880.0 14.245393
55890.0 14.243001
55900.0 14.241313
55910.0 14.240090
55920.0 14.239145
55930.0 14.237813
55940.0 14.237408
55950.0 14.238179
55960.0 14.237953
55970.0 14.238878
55980.0 14.239323
55990.0 14.239176
56000.0 14.239028
56010.0 14.239248
56020.0 14.239339
56030.0 14.238981
56040.0 14.238690
56050.0 14.237904
56060.0 14.237050
56070.0 14.236153
56080.0 14.234748
56090.0 14.232449
56100.0 14.230518
56110.0 14.228783
56120.0 14.226743
56130.0 14.224992
56140.0 14.224038
56150.0 14.222454
56160.0 14.220106
56170.0 14.217893
56180.0 14.215515
56190.0 14.213489
56200.0 14.211796
56210.0 14.210758
56220.0 14.209357
56230.0 14.208547
56240.0 14.209252
56250.0 14.210836
56260.0 14.213158
56270.0 14.217212
56280.0 14.222179
56290.0 14.226929
56300.0 14.230432
56310.0 14.233849
56320.0 14.237207
56330.0 14.240720
56340.0 14.243357
56350.0 14.246229
56360.0 14.249920
56370.0 14.253756
56380.0 14.256382
56390.0 14.258775
56400.0 14.260897
56410.0 14.261302
56420.0 14.261154
56430.0 14.260458
56440.0 14.259866
56450.0 14.260102
56460.0 14.261015
56470.0 14.261973
56480.0 14.264110
56490.0 14.265876
56500.0 14.267786
56510.0 14.269045
56520.0 14.270711
56530.0 14.272199
56540.0 14.272651
56550.0 14.272814
56560.0 14.272952
56570.0 14.273767
56580.0 14.274373
56590.0 14.275917
56600.0 14.276972
56610.0 14.277529
56620.0 14.277874
56630.0 14.278360
56640.0 14.279360
56650.0 14.279968
56660.0 14.279284
56670.0 14.277403
56680.0 14.276144
56690.0 14.275779
56700.0 14.275714
56710.0 14.275423
56720.0 14.275147
56730.0 14.274113
56740.0 14.271968
56750.0 14.270751
56760.0 14.270166
56770.0 14.269059
56780.0 14.267523
56790.0 14.266071
56800.0 14.263992
56810.0 14.262511
56820.0 14.261315
56830.0 14.261506
56840.0 14.261645
56850.0 14.261826
56860.0 14.262557
56870.0 14.264078
56880.0 14.266847
56890.0 14.270522
56900.0 14.275285
56910.0 14.279756
56920.0 14.284374
56930.0 14.289536
56940.0 14.295898
56950.0 14.301766
56960.0 14.307813
56970.0 14.312881
56980.0 14.317723
56990.0 14.321979
57000.0 14.326522
57010.0 14.331391
57020.0 14.335946
57030.0 14.340767
57040.0 14.344739
57050.0 14.348729
57060.0 14.351990
57070.0 14.355482
57080.0 14.359971
57090.0 14.364707
57100.0 14.368558
57110.0 14.370916
57120.0 14.372951
57130.0 14.375030
57140.0 14.377121
57150.0 14.379221
57160.0 14.382028
57170.0 14.383738
57180.0 14.384852
57190.0 14.384783
57200.0 14.384835
57210.0 14.384637
57220.0 14.384267
57230.0 14.383764
57240.0 14.383309
57250.0 14.383480
57260.0 14.383408
57270.0 14.383053
57280.0 14.383193
57290.0 14.383222
57300.0 14.382888
57310.0 14.383174
57320.0 14.383312
57330.0 14.383866
57340.0 14.384918
57350.0 14.385522
57360.0 14.385815
57370.0 14.385317
57380.0 14.384274
57390.0 14.383992
57400.0 14.384054
57410.0 14.384774
57420.0 14.385746
57430.0 14.387004
57440.0 14.388333
57450.0 14.389580
57460.0 14.390988
57470.0 14.392267
57480.0 14.393754
57490.0 14.394904
57500.0 14.396932
57510.0 14.399031
57520.0 14.401770
57530.0 14.404788
57540.0 14.407609
57550.0 14.410882
57560.0 14.414226
57570.0 14.416650
57580.0 14.419685
57590.0 14.423067
57600.0 14.426390
57610.0 14.430187
57620.0 14.433613
57630.0 14.436615
57640.0 14.439887
57650.0 14.442932
57660.0 14.445441
57670.0 14.447175
57680.0 14.447954
57690.0 14.447334
57700.0 14.446036
57710.0 14.445347
57720.0 14.445470
57730.0 14.445860
57740.0 14.446401
57750.0 14.447852
57760.0 14.449675
57770.0 14.450581
57780.0 14.450857
57790.0 14.451317
57800.0 14.452450
57810.0 14.453457
57820.0 14.454833
57830.0 14.456670
57840.0 14.458017
57850.0 14.459734
57860.0 14.460568
57870.0 14.460454
57880.0 14.459375
57890.0 14.459064
57900.0 14.459561
57910.0 14.459434
57920.0 14.459380
57930.0 14.459153
57940.0 14.459244
57950.0 14.460218
57960.0 14.461069
57970.0 14.461363
57980.0 14.461277
57990.0 14.461565
58000.0 14.462147
58010.0 14.462277
58020.0 14.462231
58030.0 14.462824
58040.0 14.464273
58050.0 14.466218
58060.0 14.469383
58070.0 14.473421
58080.0 14.478166
58090.0 14.481220
58100.0 14.482238
58110.0 14.482285
58120.0 14.482771
58130.0 14.484745
58140.0 14.487351
58150.0 14.490834
58160.0 14.493980
58170.0 14.496714
58180.0 14.499790
58190.0 14.503834
58200.0 14.508464
58210.0 14.512926
58220.0 14.517679
58230.0 14.522077
58240.0 14.524750
58250.0 14.527106
58260.0 14.530804
58270.0 14.535040
58280.0 14.538801
58290.0 14.541873
58300.0 14.545196
58310.0 14.548592
58320.0 14.551268
58330.0 14.553229
58340.0 14.554250
58350.0 14.554907
58360.0 14.556021
58370.0 14.556739
58380.0 14.557251
58390.0 14.556002
58400.0 14.553618
58410.0 14.551716
58420.0 14.550860
58430.0 14.549828
58440.0 14.548266
58450.0 14.546693
58460.0 14.544359
58470.0 14.542427
58480.0 14.540130
58490.0 14.537866
58500.0 14.535524
58510.0 14.533174
58520.0 14.530836
58530.0 14.528649
58540.0 14.526423
58550.0 14.524076
58560.0 14.522373
58570.0 14.521209
58580.0 14.519654
58590.0 14.517592
58600.0 14.515869
58610.0 14.514385
58620.0 14.513152
58630.0 14.512298
58640.0 14.512282
58650.0 14.513323
58660.0 14.514588
58670.0 14.514492
58680.0 14.514025
58690.0 14.514114
58700.0 14.514370
58710.0 14.514691
58720.0 14.514524
58730.0 14.513316
58740.0 14.511561
58750.0 14.510119
58760.0 14.508647
58770.0 14.507010
58780.0 14.504794
58790.0 14.502453
58800.0 14.500203
58810.0 14.498056
58820.0 14.496933
58830.0 14.495933
58840.0 14.494053
58850.0 14.492691
58860.0 14.491608
58870.0 14.490237
58880.0 14.489311
58890.0 14.488615
58900.0 14.488352
58910.0 14.487513
58920.0 14.485497
58930.0 14.483196
58940.0 14.481746
58950.0 14.480256
58960.0 14.478171
58970.0 14.476130
58980.0 14.473928
58990.0 14.472002
59000.0 14.469682
59010.0 14.467619
59020.0 14.465673
59030.0 14.464575
59040.0 14.463076
59050.0 14.461070
59060.0 14.459058
59070.0 14.457277
59080.0 14.454979
59090.0 14.454622
59100.0 14.454597
59110.0 14.453848
59120.0 14.452293
59130.0 14.450038
59140.0 14.447808
59150.0 14.445522
59160.0 14.443366
59170.0 14.442087
59180.0 14.440623
59190.0 14.439708
59200.0 14.438760
59210.0 14.437311
59220.0 14.435274
59230.0 14.433090
59240.0 14.432185
59250.0 14.431006
59260.0 14.429958
59270.0 14.429815
59280.0 14.430196
59290.0 14.429854
59300.0 14.429253
59310.0 14.428258
59320.0 14.427012
59330.0 14.425432
59340.0 14.423952
59350.0 14.422843
59360.0 14.421770
59370.0 14.420527
59380.0 14.419193
59390.0 14.418593
59400.0 14.417969
59410.0 14.417957
59420.0 14.417810
59430.0 14.417442
59440.0 14.416817
59450.0 14.416338
59460.0 14.415738
59470.0 14.414246
59480.0 14.412504
59490.0 14.410234
59500.0 14.408071
59510.0 14.406489
59520.0 14.404356
59530.0 14.402478
59540.0 14.400775
59550.0 14.399405
59560.0 14.398075
59570.0 14.397056
59580.0 14.395296
59590.0 14.394245
59600.0 14.393001
59610.0 14.391743
59620.0 14.390334
59630.0 14.388549
59640.0 14.386221
59650.0 14.383852
59660.0 14.381541
59670.0 14.379535
59680.0 14.377265
59690.0 14.374968
59700.0 14.373887
59710.0 14.372842
59720.0 14.370972
59730.0 14.368828
59740.0 14.366562
59750.0 14.364571
59760.0 14.362247
59770.0 14.360031
59780.0 14.358276
59790.0 14.356203
59800.0 14.354427
59810.0 14.352610
59820.0 14.350995
59830.0 14.349402
59840.0 14.348162
59850.0 14.346718
59860.0 14.345349
59870.0 14.344325
59880.0 14.343642
59890.0 14.342909
59900.0 14.341976
59910.0 14.341011
59920.0 14.340592
59930.0 14.340654
59940.0 14.341761
59950.0 14.343802
59960.0 14.345709
59970.0 14.346599
59980.0 14.346818
59990.0 14.346422
60000.0 14.345733
60010.0 14.344863
60020.0 14.343080
60030.0 14.340942
60040.0 14.338753
60050.0 14.336526
60060.0 14.334673
60070.0 14.332405
60080.0 14.330156
60090.0 14.327793
60100.0 14.325577
60110.0 14.323768
60120.0 14.322338
60130.0 14.320511
60140.0 14.318843
60150.0 14.317439
60160.0 14.316262
60170.0 14.315135
60180.0 14.313790
60190.0 14.313012
60200.0 14.311949
60210.0 14.310136
60220.0 14.308265
60230.0 14.306536
60240.0 14.304711
60250.0 14.303473
60260.0 14.301654
60270.0 14.299407
60280.0 14.298948
60290.0 14.299138
60300.0 14.299430
60310.0 14.299256
60320.0 14.298960
60330.0 14.298764
60340.0 14.298313
60350.0 14.297524
60360.0 14.297699
60370.0 14.297769
60380.0 14.298459
60390.0 14.297851
60400.0 14.297289
60410.0 14.296307
60420.0 14.296009
60430.0 14.296252
60440.0 14.295835
60450.0 14.296162
60460.0 14.297319
60470.0 14.298820
60480.0 14.300091
60490.0 14.299928
60500.0 14.298498
60510.0 14.296716
60520.0 14.294792
60530.0 14.293125
60540.0 14.291644
60550.0 14.291257
60560.0 14.291703
60570.0 14.292997
60580.0 14.293815
60590.0 14.295255
60600.0 14.296503
60610.0 14.297571
60620.0 14.298462
60630.0 14.299512
60640.0 14.301131
60650.0 14.303105
60660.0 14.305645
60670.0 14.307930
60680.0 14.309944
60690.0 14.311044
60700.0 14.313156
60710.0 14.314296
60720.0 14.314676
60730.0 14.314945
60740.0 14.315425
60750.0 14.316305
60760.0 14.317685
60770.0 14.319214
60780.0 14.321585
60790.0 14.324654
60800.0 14.329175
60810.0 14.334000
60820.0 14.338300
60830.0 14.342037
60840.0 14.345833
60850.0 14.348934
60860.0 14.351460
60870.0 14.353687
60880.0 14.355923
60890.0 14.358514
60900.0 14.360934
60910.0 14.362807
60920.0 14.364466
60930.0 14.366196
60940.0 14.367463
60950.0 14.368853
60960.0 14.370858
60970.0 14.373275
60980.0 14.374287
60990.0 14.375128
61000.0 14.376784
61010.0 14.378127
61020.0 14.379671
61030.0 14.380983
61040.0 14.382813
61050.0 14.384716
61060.0 14.386844
61070.0 14.388465
61080.0 14.390027
61090.0 14.392204
61100.0 14.394428
61110.0 14.396545
61120.0 14.398322
61130.0 14.400930
61140.0 14.403736
61150.0 14.405606
61160.0 14.407574
61170.0 14.409718
61180.0 14.411585
61190.0 14.413487
61200.0 14.415782
61210.0 14.418524
61220.0 14.421190
61230.0 14.424007
61240.0 14.426150
61250.0 14.428330
61260.0 14.430613
61270.0 14.432518
61280.0 14.433220
61290.0 14.433048
61300.0 14.432338
61310.0 14.432147
61320.0 14.431779
61330.0 14.430375
61340.0 14.430146
61350.0 14.430341
61360.0 14.430181
61370.0 14.429027
61380.0 14.428055
61390.0 14.427343
61400.0 14.426201
61410.0 14.425261
61420.0 14.424363
61430.0 14.422949
61440.0 14.421757
61450.0 14.419686
61460.0 14.418089
61470.0 14.416817
61480.0 14.414949
61490.0 14.413215
61500.0 14.411257
61510.0 14.409630
61520.0 14.407736
61530.0 14.405723
61540.0 14.403801
61550.0 14.401702
61560.0 14.399684
61570.0 14.397714
61580.0 14.396569
61590.0 14.395955
61600.0 14.395578
61610.0 14.395507
61620.0 14.394736
61630.0 14.394756
61640.0 14.395091
61650.0 14.395158
61660.0 14.395143
61670.0 14.394344
61680.0 14.393952
61690.0 14.392946
61700.0 14.392103
61710.0 14.390618
61720.0 14.388564
61730.0 14.386854
61740.0 14.385033
61750.0 14.383164
61760.0 14.381167
61770.0 14.379575
61780.0 14.377846
61790.0 14.375764
61800.0 14.373673
61810.0 14.371483
61820.0 14.369680
61830.0 14.368295
61840.0 14.367649
61850.0 14.366925
61860.0 14.366139
61870.0 14.364863
61880.0 14.363369
61890.0 14.361672
61900.0 14.360296
61910.0 14.359777
61920.0 14.360124
61930.0 14.360277
61940.0 14.360338
61950.0 14.360190
61960.0 14.358975
61970.0 14.357320
61980.0 14.355972
61990.0 14.356407
62000.0 14.357130
62010.0 14.358124
62020.0 14.359070
62030.0 14.360131
62040.0 14.361256
62050.0 14.362750
62060.0 14.363764
62070.0 14.364371
62080.0 14.364155
62090.0 14.363487
62100.0 14.363415
62110.0 14.363806
62120.0 14.363629
62130.0 14.362610
62140.0 14.361515
62150.0 14.359476
62160.0 14.357224
62170.0 14.355111
62180.0 14.353000
62190.0 14.351172
62200.0 14.349590
62210.0 14.348466
62220.0 14.347527
62230.0 14.346512
62240.0 14.345434
62250.0 14.344597
62260.0 14.344172
62270.0 14.343306
62280.0 14.341062
62290.0 14.339679
62300.0 14.338780
62310.0 14.337066
62320.0 14.335183
62330.0 14.333688
62340.0 14.332719
62350.0 14.330957
62360.0 14.328894
62370.0 14.326648
62380.0 14.324425
62390.0 14.322320
62400.0 14.320448
62410.0 14.318434
62420.0 14.316480
62430.0 14.314709
62440.0 14.312752
62450.0 14.310806
62460.0 14.309734
62470.0 14.308944
62480.0 14.308316
62490.0 14.307954
62500.0 14.307901
62510.0 14.308070
62520.0 14.308374
62530.0 14.308980
62540.0 14.310262
62550.0 14.311574
62560.0 14.312324
62570.0 14.312370
62580.0 14.312075
62590.0 14.311166
62600.0 14.310182
62610.0 14.308306
62620.0 14.306160
62630.0 14.303944
62640.0 14.302266
62650.0 14.300656
62660.0 14.298652
62670.0 14.296809
62680.0 14.294720
62690.0 14.293372
62700.0 14.291597
62710.0 14.289384
62720.0 14.287291
62730.0 14.285299
62740.0 14.283234
62750.0 14.281763
62760.0 14.279947
62770.0 14.278498
62780.0 14.277113
62790.0 14.275044
62800.0 14.273225
62810.0 14.272116
62820.0 14.271125
62830.0 14.270537
62840.0 14.270249
62850.0 14.269236
62860.0 14.267799
62870.0 14.265785
62880.0 14.263673
62890.0 14.261525
62900.0 14.259879
62910.0 14.258701
62920.0 14.257967
62930.0 14.258083
62940.0 14.259039
62950.0 14.260148
62960.0 14.261515
62970.0 14.263084
62980.0 14.264589
62990.0 14.264367
63000.0 14.263027
63010.0 14.261454
63020.0 14.259559
63030.0 14.257530
63040.0 14.255516
63050.0 14.253431
63060.0 14.251224
63070.0 14.249460
63080.0 14.247429
63090.0 14.245317
63100.0 14.243239
63110.0 14.241041
63120.0 14.239050
63130.0 14.237197
63140.0 14.235639
63150.0 14.233849
63160.0 14.231755
63170.0 14.229647
63180.0 14.227457
63190.0 14.225405
63200.0 14.223562
63210.0 14.221536
63220.0 14.219723
63230.0 14.217755
63240.0 14.215761
63250.0 14.213784
63260.0 14.211688
63270.0 14.209807
63280.0 14.207739
63290.0 14.205897
63300.0 14.204399
63310.0 14.203030
63320.0 14.201249
63330.0 14.199094
63340.0 14.197062
63350.0 14.195266
63360.0 14.193656
63370.0 14.191637
63380.0 14.189937
63390.0 14.188090
63400.0 14.186948
63410.0 14.186370
63420.0 14.185427
63430.0 14.183955
63440.0 14.182077
63450.0 14.180237
63460.0 14.179314
63470.0 14.179313
63480.0 14.179676
63490.0 14.179947
63500.0 14.180816
63510.0 14.182802
63520.0 14.184959
63530.0 14.186780
63540.0 14.189104
63550.0 14.191334
63560.0 14.193321
63570.0 14.195402
63580.0 14.198305
63590.0 14.201271
63600.0 14.204487
63610.0 14.207666
63620.0 14.210479
63630.0 14.212057
63640.0 14.214208
63650.0 14.216416
63660.0 14.218118
63670.0 14.220696
63680.0 14.223998
63690.0 14.226200
63700.0 14.228855
63710.0 14.232351
63720.0 14.235679
63730.0 14.239416
63740.0 14.242892
63750.0 14.246900
63760.0 14.251167
63770.0 14.254995
63780.0 14.258456
63790.0 14.261791
63800.0 14.265209
63810.0 14.269706
63820.0 14.274223
63830.0 14.278902
63840.0 14.284208
63850.0 14.289167
63860.0 14.294159
63870.0 14.298757
63880.0 14.303161
63890.0 14.307575
63900.0 14.312038
63910.0 14.316049
63920.0 14.319765
63930.0 14.323209
63940.0 14.327045
63950.0 14.331193
63960.0 14.335251
63970.0 14.339398
63980.0 14.343474
63990.0 14.346583
64000.0 14.348787
64010.0 14.350386
64020.0 14.351992
64030.0 14.354513
64040.0 14.358135
64050.0 14.361592
64060.0 14.363888
64070.0 14.365306
64080.0 14.366350
64090.0 14.367698
64100.0 14.369434
64110.0 14.371692
64120.0 14.374970
64130.0 14.379101
64140.0 14.383646
64150.0 14.388776
64160.0 14.394279
64170.0 14.399144
64180.0 14.404020
64190.0 14.407671
64200.0 14.410739
64210.0 14.413414
64220.0 14.415972
64230.0 14.419035
64240.0 14.422303
64250.0 14.425449
64260.0 14.429390
64270.0 14.433556
64280.0 14.437285
64290.0 14.441788
64300.0 14.446085
64310.0 14.449669
64320.0 14.454359
64330.0 14.459270
64340.0 14.463920
64350.0 14.468855
64360.0 14.473773
64370.0 14.478574
64380.0 14.482940
64390.0 14.487927
64400.0 14.493144
64410.0 14.497968
64420.0 14.503014
64430.0 14.508226
64440.0 14.512937
64450.0 14.516438
64460.0 14.519436
64470.0 14.522340
64480.0 14.525112
64490.0 14.527327
64500.0 14.530169
64510.0 14.532284
64520.0 14.534309
64530.0 14.535884
64540.0 14.537083
64550.0 14.538535
64560.0 14.539657
64570.0 14.541070
64580.0 14.541971
64590.0 14.542402
64600.0 14.541949
64610.0 14.541465
64620.0 14.541746
64630.0 14.542254
64640.0 14.543962
64650.0 14.546976
64660.0 14.550254
64670.0 14.552715
64680.0 14.554953
64690.0 14.556431
64700.0 14.557830
64710.0 14.559397
64720.0 14.561134
64730.0 14.561779
64740.0 14.561546
64750.0 14.561647
64760.0 14.561613
64770.0 14.561374
64780.0 14.561907
64790.0 14.562794
64800.0 14.563765
64810.0 14.564594
64820.0 14.565085
64830.0 14.565125
64840.0 14.565078
64850.0 14.564988
64860.0 14.564736
64870.0 14.563794
64880.0 14.562920
64890.0 14.561711
64900.0 14.560237
64910.0 14.558641
64920.0 14.557451
64930.0 14.556481
64940.0 14.556038
64950.0 14.556149
64960.0 14.556434
64970.0 14.556779
64980.0 14.557244
64990.0 14.557952
65000.0 14.558473
65010.0 14.558926
65020.0 14.558884
65030.0 14.558865
65040.0 14.559171
65050.0 14.560186
65060.0 14.561206
65070.0 14.562397
65080.0 14.564059
65090.0 14.565382
65100.0 14.566796
65110.0 14.568146
65120.0 14.569636
65130.0 14.570048
65140.0 14.570140
65150.0 14.570095
65160.0 14.570705
65170.0 14.571871
65180.0 14.573248
65190.0 14.575278
65200.0 14.578389
65210.0 14.581293
65220.0 14.583316
65230.0 14.584596
65240.0 14.585173
65250.0 14.584713
65260.0 14.584481
65270.0 14.584427
65280.0 14.584815
65290.0 14.585454
65300.0 14.585945
65310.0 14.586608
65320.0 14.587016
65330.0 14.587113
65340.0 14.587215
65350.0 14.587182
65360.0 14.586870
65370.0 14.586161
65380.0 14.584767
65390.0 14.583332
65400.0 14.581327
65410.0 14.580234
65420.0 14.578885
65430.0 14.578395
65440.0 14.577487
65450.0 14.576643
65460.0 14.576672
65470.0 14.576408
65480.0 14.575682
65490.0 14.575259
65500.0 14.574508
65510.0 14.572909
65520.0 14.571602
65530.0 14.570084
65540.0 14.568668
65550.0 14.567879
65560.0 14.567057
65570.0 14.566870
65580.0 14.566999
65590.0 14.566699
65600.0 14.565990
65610.0 14.566244
65620.0 14.567042
65630.0 14.568045
65640.0 14.568460
65650.0 14.568757
65660.0 14.569126
65670.0 14.569455
65680.0 14.569964
65690.0 14.569955
65700.0 14.569736
65710.0 14.569363
65720.0 14.569241
65730.0 14.568933
65740.0 14.568051
65750.0 14.566719
65760.0 14.565132
65770.0 14.563552
65780.0 14.562345
65790.0 14.561546
65800.0 14.560572
65810.0 14.558885
65820.0 14.557196
65830.0 14.555774
65840.0 14.555276
65850.0 14.555039
65860.0 14.554513
65870.0 14.554067
65880.0 14.553450
65890.0 14.552617
65900.0 14.551114
65910.0 14.549536
65920.0 14.548335
65930.0 14.548041
65940.0 14.547746
65950.0 14.547359
65960.0 14.547094
65970.0 14.546586
65980.0 14.546635
65990.0 14.546499
66000.0 14.546894
66010.0 14.547573
66020.0 14.548541
66030.0 14.549510
66040.0 14.549738
66050.0 14.549414
66060.0 14.549722
66070.0 14.550234
66080.0 14.551254
66090.0 14.553174
66100.0 14.554959
66110.0 14.556622
66120.0 14.558416
66130.0 14.560215
66140.0 14.562333
66150.0 14.564167
66160.0 14.565526
66170.0 14.566610
66180.0 14.567199
66190.0 14.567778
66200.0 14.568084
66210.0 14.568769
66220.0 14.569504
66230.0 14.571022
66240.0 14.573212
66250.0 14.574727
66260.0 14.576062
66270.0 14.577485
66280.0 14.579039
66290.0 14.579690
66300.0 14.579625
66310.0 14.578158
66320.0 14.576159
66330.0 14.574727
66340.0 14.573681
66350.0 14.572621
66360.0 14.570971
66370.0 14.570318
66380.0 14.569381
66390.0 14.567323
66400.0 14.565226
66410.0 14.563711
66420.0 14.562503
66430.0 14.561000
66440.0 14.559343
66450.0 14.557764
66460.0 14.556376
66470.0 14.555306
66480.0 14.554215
66490.0 14.553255
66500.0 14.551763
66510.0 14.549705
66520.0 14.547608
66530.0 14.545795
66540.0 14.544364
66550.0 14.542271
66560.0 14.540544
66570.0 14.538815
66580.0 14.537257
66590.0 14.535723
66600.0 14.534287
66610.0 14.533039
66620.0 14.532334
66630.0 14.531873
66640.0 14.531809
66650.0 14.530638
66660.0 14.529174
66670.0 14.528319
66680.0 14.528316
66690.0 14.528867
66700.0 14.529424
66710.0 14.530049
66720.0 14.531482
66730.0 14.532501
66740.0 14.532970
66750.0 14.534049
66760.0 14.534950
66770.0 14.535615
66780.0 14.535804
66790.0 14.535226
66800.0 14.535542
66810.0 14.536783
66820.0 14.538711
66830.0 14.540840
66840.0 14.542786
66850.0 14.544496
66860.0 14.546072
66870.0 14.547573
66880.0 14.549104
66890.0 14.551244
66900.0 14.553918
66910.0 14.556827
66920.0 14.559622
66930.0 14.562048
66940.0 14.563756
66950.0 14.566052
66960.0 14.568722
66970.0 14.570986
66980.0 14.572986
66990.0 14.573994
67000.0 14.574504
67010.0 14.575605
67020.0 14.577061
67030.0 14.578718
67040.0 14.580816
67050.0 14.583319
67060.0 14.585840
67070.0 14.588783
67080.0 14.591293
67090.0 14.594002
67100.0 14.596774
67110.0 14.599590
67120.0 14.601779
67130.0 14.603551
67140.0 14.604975
67150.0 14.605981
67160.0 14.606760
67170.0 14.607235
67180.0 14.608171
67190.0 14.609466
67200.0 14.610994
67210.0 14.612443
67220.0 14.613986
67230.0 14.615925
67240.0 14.617913
67250.0 14.621001
67260.0 14.624328
67270.0 14.627261
67280.0 14.629887
67290.0 14.632173
67300.0 14.633841
67310.0 14.635655
67320.0 14.637287
67330.0 14.638631
67340.0 14.639696
67350.0 14.640877
67360.0 14.641317
67370.0 14.641410
67380.0 14.641107
67390.0 14.640227
67400.0 14.639091
67410.0 14.637434
67420.0 14.635661
67430.0 14.635273
67440.0 14.635145
67450.0 14.635303
67460.0 14.635290
67470.0 14.635165
67480.0 14.635192
67490.0 14.635116
67500.0 14.635020
67510.0 14.634371
67520.0 14.633770
67530.0 14.633768
67540.0 14.633819
67550.0 14.633574
67560.0 14.633084
67570.0 14.631922
67580.0 14.630673
67590.0 14.629101
67600.0 14.628524
67610.0 14.627243
67620.0 14.625680
67630.0 14.623634
67640.0 14.621590
67650.0 14.620166
67660.0 14.619009
67670.0 14.618916
67680.0 14.619119
67690.0 14.618858
67700.0 14.617974
67710.0 14.616657
67720.0 14.615035
67730.0 14.613160
67740.0 14.611054
67750.0 14.609161
67760.0 14.607386
67770.0 14.605980
67780.0 14.604379
67790.0 14.602548
67800.0 14.600534
67810.0 14.599734
67820.0 14.600366
67830.0 14.601062
67840.0 14.601803
67850.0 14.601933
67860.0 14.602554
67870.0 14.603438
67880.0 14.603949
67890.0 14.604410
67900.0 14.604107
67910.0 14.604188
67920.0 14.604659
67930.0 14.605327
67940.0 14.605702
67950.0 14.605412
67960.0 14.605201
67970.0 14.604740
67980.0 14.605393
67990.0 14.606519
68000.0 14.607479
68010.0 14.606665
68020.0 14.605780
68030.0 14.605639
68040.0 14.606558
68050.0 14.606266
68060.0 14.605906
68070.0 14.605388
68080.0 14.605102
68090.0 14.604718
68100.0 14.605009
68110.0 14.606349
68120.0 14.607669
68130.0 14.609302
68140.0 14.611081
68150.0 14.612758
68160.0 14.614410
68170.0 14.616380
68180.0 14.618742
68190.0 14.621753
68200.0 14.624545
68210.0 14.627231
68220.0 14.630531
68230.0 14.634101
68240.0 14.637306
68250.0 14.639942
68260.0 14.643370
68270.0 14.647273
68280.0 14.651718
68290.0 14.656118
68300.0 14.660984
68310.0 14.665658
68320.0 14.670712
68330.0 14.675869
68340.0 14.681544
68350.0 14.686866
68360.0 14.692120
68370.0 14.696433
68380.0 14.699730
68390.0 14.703797
68400.0 14.709080
68410.0 14.714495
68420.0 14.720809
68430.0 14.728052
68440.0 14.735662
68450.0 14.743136
68460.0 14.751093
68470.0 14.758992
68480.0 14.766150
68490.0 14.772986
68500.0 14.778941
68510.0 14.783775
68520.0 14.788087
68530.0 14.792603
68540.0 14.798201
68550.0 14.804845
68560.0 14.811841
68570.0 14.820116
68580.0 14.828087
68590.0 14.836729
68600.0 14.845976
68610.0 14.855921
68620.0 14.866460
68630.0 14.877327
68640.0 14.888906
68650.0 14.900547
68660.0 14.910899
68670.0 14.921082
68680.0 14.931880
68690.0 14.942829
68700.0 14.953515
68710.0 14.964233
68720.0 14.974589
68730.0 14.984927
68740.0 14.995408
68750.0 15.005654
68760.0 15.015529
68770.0 15.024707
68780.0 15.034108
68790.0 15.043478
68800.0 15.053157
68810.0 15.062913
68820.0 15.072137
68830.0 15.081297
68840.0 15.089500
68850.0 15.097837
68860.0 15.106084
68870.0 15.114044
68880.0 15.121285
68890.0 15.128016
68900.0 15.135057
68910.0 15.142530
68920.0 15.150119
68930.0 15.158116
68940.0 15.165678
68950.0 15.172295
68960.0 15.179229
68970.0 15.186258
68980.0 15.192617
68990.0 15.198601
69000.0 15.204872
69010.0 15.211054
69020.0 15.217043
69030.0 15.222446
69040.0 15.227932
69050.0 15.234266
69060.0 15.241740
69070.0 15.249247
69080.0 15.257057
69090.0 15.265078
69100.0 15.272232
69110.0 15.279699
69120.0 15.287117
69130.0 15.294015
69140.0 15.300977
69150.0 15.308592
69160.0 15.316506
69170.0 15.324394
69180.0 15.332235
69190.0 15.339705
69200.0 15.347070
69210.0 15.355371
69220.0 15.363941
69230.0 15.371434
69240.0 15.378285
69250.0 15.386287
69260.0 15.394562
69270.0 15.403735
69280.0 15.413052
69290.0 15.422461
69300.0 15.431519
69310.0 15.439810
69320.0 15.447546
69330.0 15.455703
69340.0 15.464044
69350.0 15.471868
69360.0 15.480048
69370.0 15.488645
69380.0 15.497537
69390.0 15.507601
69400.0 15.517401
69410.0 15.527514
69420.0 15.536986
69430.0 15.546746
69440.0 15.556712
69450.0 15.566646
69460.0 15.577295
69470.0 15.588559
69480.0 15.599209
69490.0 15.610934
69500.0 15.622647
69510.0 15.634377
69520.0 15.645323
69530.0 15.656238
69540.0 15.666023
69550.0 15.675860
69560.0 15.686755
69570.0 15.697567
69580.0 15.708118
69590.0 15.718198
69600.0 15.727679
69610.0 15.737356
69620.0 15.746638
69630.0 15.755611
69640.0 15.764395
69650.0 15.773037
69660.0 15.781847
69670.0 15.790827
69680.0 15.798961
69690.0 15.806598
69700.0 15.814568
69710.0 15.822504
69720.0 15.830163
69730.0 15.837877
69740.0 15.845571
69750.0 15.853815
69760.0 15.861966
69770.0 15.870437
69780.0 15.878923
69790.0 15.886646
69800.0 15.894197
69810.0 15.901572
69820.0 15.908912
69830.0 15.917180
69840.0 15.924752
69850.0 15.931714
69860.0 15.937853
69870.0 15.943386
69880.0 15.948490
69890.0 15.953699
69900.0 15.960104
69910.0 15.967115
69920.0 15.973846
69930.0 15.980660
69940.0 15.986799
69950.0 15.993560
69960.0 16.000444
69970.0 16.006951
69980.0 16.012420
69990.0 16.018200
70000.0 16.024838
70010.0 16.032048
70020.0 16.038507
70030.0 16.044524
70040.0 16.050811
70050.0 16.056616
70060.0 16.062404
70070.0 16.069068
70080.0 16.076120
70090.0 16.082824
70100.0 16.089156
70110.0 16.095869
70120.0 16.102443
70130.0 16.109263
70140.0 16.115765
70150.0 16.121927
70160.0 16.127796
70170.0 16.133086
70180.0 16.138129
70190.0 16.143062
70200.0 16.148077
70210.0 16.152080
70220.0 16.156627
70230.0 16.161858
70240.0 16.167352
70250.0 16.172732
70260.0 16.177885
70270.0 16.182723
70280.0 16.187302
70290.0 16.191834
70300.0 16.196928
70310.0 16.202283
70320.0 16.208272
70330.0 16.214346
70340.0 16.220646
70350.0 16.227005
70360.0 16.233657
70370.0 16.240364
70380.0 16.246609
70390.0 16.252576
70400.0 16.258512
70410.0 16.265188
70420.0 16.272565
70430.0 16.280022
70440.0 16.288042
70450.0 16.296503
70460.0 16.304046
70470.0 16.311158
70480.0 16.317093
70490.0 16.322201
70500.0 16.326942
70510.0 16.331604
70520.0 16.336306
70530.0 16.341757
70540.0 16.347561
70550.0 16.353603
70560.0 16.359761
70570.0 16.366191
70580.0 16.372225
70590.0 16.379138
70600.0 16.387322
70610.0 16.395348
70620.0 16.403197
70630.0 16.411066
70640.0 16.418736
70650.0 16.426828
70660.0 16.434435
70670.0 16.442226
70680.0 16.450475
70690.0 16.458793
70700.0 16.466272
70710.0 16.473938
70720.0 16.481780
70730.0 16.488523
70740.0 16.494919
70750.0 16.500966
70760.0 16.506880
70770.0 16.512519
70780.0 16.517453
70790.0 16.522519
70800.0 16.528179
70810.0 16.533677
70820.0 16.539630
70830.0 16.545775
70840.0 16.550738
70850.0 16.555861
70860.0 16.561276
70870.0 16.567064
70880.0 16.573273
70890.0 16.578995
70900.0 16.584198
70910.0 16.589500
70920.0 16.595175
70930.0 16.600546
70940.0 16.606205
70950.0 16.611507
70960.0 16.616475
70970.0 16.621378
70980.0 16.626902
70990.0 16.633408
71000.0 16.640319
71010.0 16.647730
71020.0 16.655487
71030.0 16.662576
71040.0 16.669333
71050.0 16.675908
71060.0 16.682345
71070.0 16.689084
71080.0 16.696078
71090.0 16.703233
71100.0 16.710474
71110.0 16.717602
71120.0 16.724740
71130.0 16.731393
71140.0 16.738721
71150.0 16.746234
71160.0 16.754008
71170.0 16.762281
71180.0 16.770523
71190.0 16.779144
71200.0 16.788182
71210.0 16.797508
71220.0 16.806161
71230.0 16.814743
71240.0 16.823675
71250.0 16.832678
71260.0 16.842081
71270.0 16.852231
71280.0 16.862480
71290.0 16.872515
71300.0 16.882316
71310.0 16.890896
71320.0 16.899784
71330.0 16.908953
71340.0 16.916704
71350.0 16.924002
71360.0 16.931328
71370.0 16.939272
71380.0 16.947541
71390.0 16.955962
71400.0 16.964662
71410.0 16.973095
71420.0 16.981179
71430.0 16.988602
71440.0 16.996386
71450.0 17.004626
71460.0 17.012089
71470.0 17.019186
71480.0 17.026355
71490.0 17.033498
71500.0 17.040808
71510.0 17.048718
71520.0 17.056103
71530.0 17.064884
71540.0 17.074330
71550.0 17.083196
71560.0 17.092045
71570.0 17.101296
71580.0 17.110698
71590.0 17.119197
71600.0 17.127715
71610.0 17.136141
71620.0 17.144975
71630.0 17.153812
71640.0 17.162766
71650.0 17.171429
71660.0 17.180589
71670.0 17.189251
71680.0 17.198277
71690.0 17.206855
71700.0 17.215052
71710.0 17.223481
71720.0 17.231559
71730.0 17.240118
71740.0 17.249219
71750.0 17.258019
71760.0 17.266894
71770.0 17.275834
71780.0 17.284940
71790.0 17.294286
71800.0 17.303175
71810.0 17.311634
71820.0 17.320043
71830.0 17.328501
71840.0 17.336501
71850.0 17.344418
71860.0 17.352362
71870.0 17.360658
71880.0 17.368290
71890.0 17.376048
71900.0 17.383376
71910.0 17.391607
71920.0 17.399384
71930.0 17.407041
71940.0 17.413607
71950.0 17.420024
71960.0 17.426094
71970.0 17.431723
71980.0 17.436616
71990.0 17.440236
72000.0 17.443842
72010.0 17.446284
72020.0 17.447904
72030.0 17.450914
72040.0 17.454740
72050.0 17.458079
72060.0 17.460941
72070.0 17.462343
72080.0 17.462263
72090.0 17.461253
72100.0 17.460383
72110.0 17.458815
72120.0 17.457070
72130.0 17.455398
72140.0 17.453427
72150.0 17.451223
72160.0 17.449580
72170.0 17.448375
72180.0 17.447767
72190.0 17.447009
72200.0 17.445769
72210.0 17.444329
72220.0 17.442939
72230.0 17.441280
72240.0 17.440183
72250.0 17.439690
72260.0 17.439110
72270.0 17.437299
72280.0 17.435168
72290.0 17.432831
72300.0 17.430692
72310.0 17.428730
72320.0 17.427608
72330.0 17.426667
72340.0 17.426307
72350.0 17.425828
72360.0 17.424795
72370.0 17.423301
72380.0 17.421777
72390.0 17.420522
72400.0 17.419212
72410.0 17.418426
72420.0 17.417227
72430.0 17.416064
72440.0 17.414622
72450.0 17.412835
72460.0 17.410916
72470.0 17.409853
72480.0 17.408814
72490.0 17.407489
72500.0 17.405880
72510.0 17.404387
72520.0 17.402181
72530.0 17.399993
72540.0 17.397864
72550.0 17.395929
72560.0 17.393896
72570.0 17.391608
72580.0 17.389788
72590.0 17.387859
72600.0 17.386404
72610.0 17.384952
72620.0 17.383415
72630.0 17.381522
72640.0 17.380007
72650.0 17.378671
72660.0 17.377678
72670.0 17.376018
72680.0 17.374125
72690.0 17.372049
72700.0 17.369922
72710.0 17.367894
72720.0 17.366104
72730.0 17.364689
72740.0 17.362581
72750.0 17.360571
72760.0 17.359058
72770.0 17.357190
72780.0 17.355614
72790.0 17.354417
72800.0 17.354414
72810.0 17.355853
72820.0 17.356892
72830.0 17.357884
72840.0 17.358035
72850.0 17.358208
72860.0 17.358882
72870.0 17.358743
72880.0 17.358819
72890.0 17.358862
72900.0 17.358421
72910.0 17.358205
72920.0 17.358055
72930.0 17.357474
72940.0 17.357191
72950.0 17.356702
72960.0 17.355964
72970.0 17.354840
72980.0 17.353541
72990.0 17.352614
73000.0 17.352127
73010.0 17.352140
73020.0 17.352310
73030.0 17.351983
73040.0 17.351417
73050.0 17.350655
73060.0 17.349440
73070.0 17.348229
73080.0 17.347475
73090.0 17.347131
73100.0 17.347067
73110.0 17.347166
73120.0 17.347055
73130.0 17.347698
73140.0 17.349189
73150.0 17.350837
73160.0 17.351952
73170.0 17.352973
73180.0 17.354145
73190.0 17.355317
73200.0 17.356651
73210.0 17.357335
73220.0 17.357250
73230.0 17.357345
73240.0 17.358790
73250.0 17.360419
73260.0 17.362447
73270.0 17.364800
73280.0 17.366985
73290.0 17.369367
73300.0 17.371956
73310.0 17.373719
73320.0 17.375000
73330.0 17.376672
73340.0 17.378500
73350.0 17.379293
73360.0 17.379621
73370.0 17.378833
73380.0 17.377705
73390.0 17.375964
73400.0 17.373782
73410.0 17.372068
73420.0 17.369970
73430.0 17.368981
73440.0 17.368169
73450.0 17.367028
73460.0 17.366167
73470.0 17.364603
73480.0 17.362340
73490.0 17.360070
73500.0 17.357844
73510.0 17.356124
73520.0 17.353918
73530.0 17.351750
73540.0 17.349519
73550.0 17.347300
73560.0 17.345841
73570.0 17.344241
73580.0 17.343255
73590.0 17.341778
73600.0 17.340142
73610.0 17.338535
73620.0 17.336497
73630.0 17.334258
73640.0 17.332783
73650.0 17.331093
73660.0 17.329355
73670.0 17.327949
73680.0 17.326856
73690.0 17.326531
73700.0 17.326184
73710.0 17.326049
73720.0 17.325067
73730.0 17.323499
73740.0 17.321412
73750.0 17.319505
73760.0 17.317627
73770.0 17.316493
73780.0 17.314745
73790.0 17.312717
73800.0 17.310562
73810.0 17.308754
73820.0 17.307708
73830.0 17.307632
73840.0 17.307907
73850.0 17.308249
73860.0 17.308751
73870.0 17.309716
73880.0 17.309824
73890.0 17.309737
73900.0 17.308934
73910.0 17.307617
73920.0 17.306703
73930.0 17.305255
73940.0 17.304297
73950.0 17.303816
73960.0 17.304074
73970.0 17.305339
73980.0 17.307024
73990.0 17.308412
74000.0 17.309311
74010.0 17.309736
74020.0 17.309874
74030.0 17.309524
74040.0 17.310111
74050.0 17.310236
74060.0 17.310502
74070.0 17.310737
74080.0 17.311884
74090.0 17.312815
74100.0 17.314112
74110.0 17.316277
74120.0 17.318639
74130.0 17.320495
74140.0 17.322566
74150.0 17.324315
74160.0 17.326458
74170.0 17.329008
74180.0 17.332199
74190.0 17.335750
74200.0 17.338844
74210.0 17.342196
74220.0 17.345644
74230.0 17.349340
74240.0 17.353078
74250.0 17.357485
74260.0 17.361118
74270.0 17.364528
74280.0 17.367810
74290.0 17.371947
74300.0 17.377052
74310.0 17.381490
74320.0 17.384789
74330.0 17.387726
74340.0 17.390465
74350.0 17.393446
74360.0 17.396284
74370.0 17.398644
74380.0 17.399842
74390.0 17.400616
74400.0 17.400628
74410.0 17.400714
74420.0 17.400805
74430.0 17.401077
74440.0 17.401531
74450.0 17.402813
74460.0 17.403725
74470.0 17.404315
74480.0 17.404554
74490.0 17.404099
74500.0 17.403715
74510.0 17.404104
74520.0 17.404625
74530.0 17.405618
74540.0 17.407193
74550.0 17.409169
74560.0 17.411763
74570.0 17.414792
74580.0 17.417600
74590.0 17.420418
74600.0 17.423430
74610.0 17.425279
74620.0 17.426395
74630.0 17.427213
74640.0 17.427555
74650.0 17.427830
74660.0 17.428451
74670.0 17.428538
74680.0 17.428847
74690.0 17.429580
74700.0 17.429168
74710.0 17.429002
74720.0 17.428792
74730.0 17.428851
74740.0 17.429500
74750.0 17.430095
74760.0 17.429371
74770.0 17.428651
74780.0 17.428290
74790.0 17.428012
74800.0 17.427476
74810.0 17.426368
74820.0 17.424286
74830.0 17.422048
74840.0 17.420071
74850.0 17.418849
74860.0 17.417808
74870.0 17.416913
74880.0 17.415633
74890.0 17.414492
74900.0 17.413706
74910.0 17.413120
74920.0 17.412444
74930.0 17.411341
74940.0 17.410295
74950.0 17.409923
74960.0 17.409251
74970.0 17.408118
74980.0 17.407379
74990.0 17.406395
75000.0 17.405535
75010.0 17.404735
75020.0 17.403510
75030.0 17.402096
75040.0 17.401022
75050.0 17.400170
75060.0 17.400199
75070.0 17.400207
75080.0 17.399788
75090.0 17.398819
75100.0 17.397819
75110.0 17.396866
75120.0 17.395291
75130.0 17.393263
75140.0 17.391426
75150.0 17.389414
75160.0 17.387968
75170.0 17.386308
75180.0 17.384134
75190.0 17.382203
75200.0 17.380096
75210.0 17.378985
75220.0 17.378240
75230.0 17.377410
75240.0 17.376900
75250.0 17.376368
75260.0 17.375224
75270.0 17.374323
75280.0 17.374029
75290.0 17.373919
75300.0 17.373907
75310.0 17.374366
75320.0 17.375338
75330.0 17.375317
75340.0 17.374537
75350.0 17.373816
75360.0 17.372626
75370.0 17.370603
75380.0 17.368751
75390.0 17.366938
75400.0 17.364826
75410.0 17.362684
75420.0 17.360795
75430.0 17.358709
75440.0 17.356584
75450.0 17.354597
75460.0 17.353088
75470.0 17.350933
75480.0 17.348805
75490.0 17.346656
75500.0 17.344789
75510.0 17.342692
75520.0 17.340890
75530.0 17.339295
75540.0 17.338216
75550.0 17.337386
75560.0 17.336265
75570.0 17.334990
75580.0 17.333183
75590.0 17.330936
75600.0 17.328779
75610.0 17.326826
75620.0 17.325045
75630.0 17.323386
75640.0 17.321701
75650.0 17.320357
75660.0 17.318536
75670.0 17.316453
75680.0 17.314742
75690.0 17.312713
75700.0 17.310623
75710.0 17.308487
75720.0 17.306341
75730.0 17.304540
75740.0 17.303080
75750.0 17.301327
75760.0 17.299284
75770.0 17.297309
75780.0 17.295737
75790.0 17.294437
75800.0 17.292935
75810.0 17.291797
75820.0 17.290763
75830.0 17.289283
75840.0 17.288259
75850.0 17.287454
75860.0 17.286808
75870.0 17.286520
75880.0 17.287245
75890.0 17.288132
75900.0 17.289663
75910.0 17.292106
75920.0 17.294040
75930.0 17.295924
75940.0 17.297390
75950.0 17.298774
75960.0 17.299527
75970.0 17.299833
75980.0 17.300771
75990.0 17.301515
76000.0 17.302574
76010.0 17.304174
76020.0 17.305671
76030.0 17.306778
76040.0 17.308165
76050.0 17.309524
76060.0 17.311072
76070.0 17.312097
76080.0 17.312238
76090.0 17.312270
76100.0 17.312766
76110.0 17.312999
76120.0 17.312859
76130.0 17.312495
76140.0 17.312570
76150.0 17.312292
76160.0 17.312029
76170.0 17.311877
76180.0 17.311624
76190.0 17.311349
76200.0 17.310964
76210.0 17.310452
76220.0 17.309976
76230.0 17.309137
76240.0 17.307736
76250.0 17.306693
76260.0 17.306030
76270.0 17.304872
76280.0 17.303545
76290.0 17.302637
76300.0 17.301353
76310.0 17.299373
76320.0 17.297334
76330.0 17.295914
76340.0 17.294020
76350.0 17.291925
76360.0 17.290155
76370.0 17.288256
76380.0 17.286534
76390.0 17.284910
76400.0 17.283576
76410.0 17.282057
76420.0 17.280468
76430.0 17.278431
76440.0 17.276483
76450.0 17.274495
76460.0 17.272528
76470.0 17.271269
76480.0 17.270261
76490.0 17.268836
76500.0 17.267242
76510.0 17.265582
76520.0 17.264030
76530.0 17.262347
76540.0 17.260468
76550.0 17.258691
76560.0 17.256616
76570.0 17.255712
76580.0 17.254904
76590.0 17.253820
76600.0 17.252720
76610.0 17.251128
76620.0 17.249526
76630.0 17.247793
76640.0 17.246744
76650.0 17.246377
76660.0 17.246090
76670.0 17.244684
76680.0 17.242696
76690.0 17.240596
76700.0 17.238625
76710.0 17.237135
76720.0 17.236005
76730.0 17.234962
76740.0 17.233863
76750.0 17.232098
76760.0 17.230432
76770.0 17.228416
76780.0 17.226356
76790.0 17.224377
76800.0 17.222486
76810.0 17.221362
76820.0 17.219943
76830.0 17.218565
76840.0 17.216748
76850.0 17.214704
76860.0 17.213025
76870.0 17.211688
76880.0 17.210007
76890.0 17.208067
76900.0 17.206443
76910.0 17.205726
76920.0 17.205154
76930.0 17.204891
76940.0 17.204880
76950.0 17.204566
76960.0 17.203688
76970.0 17.202516
76980.0 17.201376
76990.0 17.201041
77000.0 17.200520
77010.0 17.200038
77020.0 17.200700
77030.0 17.201641
77040.0 17.202325
77050.0 17.202347
77060.0 17.201731
77070.0 17.200399
77080.0 17.199197
77090.0 17.197427
77100.0 17.195397
77110.0 17.193807
77120.0 17.192815
77130.0 17.191911
77140.0 17.190755
77150.0 17.190231
77160.0 17.189559
77170.0 17.189043
77180.0 17.188029
77190.0 17.186078
77200.0 17.184036
77210.0 17.182358
77220.0 17.180337
77230.0 17.178331
77240.0 17.176219
77250.0 17.174078
77260.0 17.172188
77270.0 17.170062
77280.0 17.168031
77290.0 17.165994
77300.0 17.164216
77310.0 17.162354
77320.0 17.160188
77330.0 17.158105
77340.0 17.156416
77350.0 17.154673
77360.0 17.152841
77370.0 17.151309
77380.0 17.149416
77390.0 17.147487
77400.0 17.145883
77410.0 17.145392
77420.0 17.144745
77430.0 17.143742
77440.0 17.142502
77450.0 17.140969
77460.0 17.139680
77470.0 17.138365
77480.0 17.136874
77490.0 17.135726
77500.0 17.135316
77510.0 17.136562
77520.0 17.137474
77530.0 17.138213
77540.0 17.138499
77550.0 17.138517
77560.0 17.138355
77570.0 17.138303
77580.0 17.137887
77590.0 17.137031
77600.0 17.135195
77610.0 17.133619
77620.0 17.132108
77630.0 17.130198
77640.0 17.128437
77650.0 17.126531
77660.0 17.124603
77670.0 17.122600
77680.0 17.120511
77690.0 17.118505
77700.0 17.116742
77710.0 17.115062
77720.0 17.113465
77730.0 17.111966
77740.0 17.110085
77750.0 17.108000
77760.0 17.106114
77770.0 17.104221
77780.0 17.102080
77790.0 17.100160
77800.0 17.098114
77810.0 17.096844
77820.0 17.095849
77830.0 17.094575
77840.0 17.093608
77850.0 17.093312
77860.0 17.092233
77870.0 17.090818
77880.0 17.089170
77890.0 17.087477
77900.0 17.085758
77910.0 17.083813
77920.0 17.082259
77930.0 17.080874
77940.0 17.079669
77950.0 17.078806
77960.0 17.078253
77970.0 17.077967
77980.0 17.078156
77990.0 17.078270
78000.0 17.078408
78010.0 17.078361
78020.0 17.078218
78030.0 17.078009
78040.0 17.077063
78050.0 17.076010
78060.0 17.075262
78070.0 17.074889
78080.0 17.074544
78090.0 17.074206
78100.0 17.074911
78110.0 17.075390
78120.0 17.075572
78130.0 17.075927
78140.0 17.076251
78150.0 17.075940
78160.0 17.075205
78170.0 17.074250
78180.0 17.073396
78190.0 17.072428
78200.0 17.071573
78210.0 17.070050
78220.0 17.067910
78230.0 17.065782
78240.0 17.063951
78250.0 17.061878
78260.0 17.059883
78270.0 17.058080
78280.0 17.056355
78290.0 17.054414
78300.0 17.052275
78310.0 17.050276
78320.0 17.048580
78330.0 17.046841
78340.0 17.044802
78350.0 17.042717
78360.0 17.040613
78370.0 17.038592
78380.0 17.036785
78390.0 17.034867
78400.0 17.033063
78410.0 17.031272
78420.0 17.029340
78430.0 17.027487
78440.0 17.025992
78450.0 17.025488
78460.0 17.025141
78470.0 17.025224
78480.0 17.025585
78490.0 17.025742
78500.0 17.025779
78510.0 17.026409
78520.0 17.027313
78530.0 17.028412
78540.0 17.029424
78550.0 17.029514
78560.0 17.029352
78570.0 17.029062
78580.0 17.028972
78590.0 17.028746
78600.0 17.027768
78610.0 17.026064
78620.0 17.025232
78630.0 17.025598
78640.0 17.027039
78650.0 17.028835
78660.0 17.030811
78670.0 17.032647
78680.0 17.034209
78690.0 17.035333
78700.0 17.036238
78710.0 17.036143
78720.0 17.035438
78730.0 17.034876
78740.0 17.034831
78750.0 17.035451
78760.0 17.036530
78770.0 17.038069
78780.0 17.040168
78790.0 17.042098
78800.0 17.044149
78810.0 17.045804
78820.0 17.048021
78830.0 17.050157
78840.0 17.052098
78850.0 17.054205
78860.0 17.056647
78870.0 17.058990
78880.0 17.061097
78890.0 17.062447
78900.0 17.063339
78910.0 17.063848
78920.0 17.063449
78930.0 17.063346
78940.0 17.063427
78950.0 17.063796
78960.0 17.063881
78970.0 17.062838
78980.0 17.061824
78990.0 17.060773
79000.0 17.059411
79010.0 17.057775
79020.0 17.056206
79030.0 17.054358
79040.0 17.052234
79050.0 17.050421
79060.0 17.048651
79070.0 17.046617
79080.0 17.044593
79090.0 17.042550
79100.0 17.040904
79110.0 17.039008
79120.0 17.037021
79130.0 17.035018
79140.0 17.032923
79150.0 17.030820
79160.0 17.028778
79170.0 17.027434
79180.0 17.026302
79190.0 17.024379
79200.0 17.022775
79210.0 17.021679
79220.0 17.021217
79230.0 17.020926
79240.0 17.020281
79250.0 17.019507
79260.0 17.018512
79270.0 17.017185
79280.0 17.016134
79290.0 17.015470
79300.0 17.014981
79310.0 17.015098
79320.0 17.015230
79330.0 17.015479
79340.0 17.015465
79350.0 17.015370
79360.0 17.015194
79370.0 17.015155
79380.0 17.015110
79390.0 17.015042
79400.0 17.014984
79410.0 17.014786
79420.0 17.014581
79430.0 17.013993
79440.0 17.013268
79450.0 17.012688
79460.0 17.011916
79470.0 17.010702
79480.0 17.009323
79490.0 17.008351
79500.0 17.007344
79510.0 17.006768
79520.0 17.006202
79530.0 17.005187
79540.0 17.003942
79550.0 17.002277
79560.0 17.000276
79570.0 16.998465
79580.0 16.996367
79590.0 16.994627
79600.0 16.992958
79610.0 16.991130
79620.0 16.989316
79630.0 16.987929
79640.0 16.986870
79650.0 16.985591
79660.0 16.984456
79670.0 16.984220
79680.0 16.984735
79690.0 16.984589
79700.0 16.983927
79710.0 16.983169
79720.0 16.981323
79730.0 16.979337
79740.0 16.977760
79750.0 16.976214
79760.0 16.975395
79770.0 16.974319
79780.0 16.973581
79790.0 16.973386
79800.0 16.973255
79810.0 16.973934
79820.0 16.975136
79830.0 16.976550
79840.0 16.978235
79850.0 16.979767
79860.0 16.981338
79870.0 16.983014
79880.0 16.984844
79890.0 16.987116
79900.0 16.989482
79910.0 16.992590
79920.0 16.996221
79930.0 16.999788
79940.0 17.002479
79950.0 17.005096
79960.0 17.006789
79970.0 17.007964
79980.0 17.008877
79990.0 17.009341
80000.0 17.010453
80010.0 17.011576
80020.0 17.012710
80030.0 17.013144
80040.0 17.013252
80050.0 17.013431
80060.0 17.013850
80070.0 17.013774
80080.0 17.013576
80090.0 17.013132
80100.0 17.012557
80110.0 17.011889
80120.0 17.011003
80130.0 17.009216
80140.0 17.007134
80150.0 17.005898
80160.0 17.004719
80170.0 17.004120
80180.0 17.004136
80190.0 17.005574
80200.0 17.007930
80210.0 17.010286
80220.0 17.011948
80230.0 17.013657
80240.0 17.014753
80250.0 17.015343
80260.0 17.015559
80270.0 17.015916
80280.0 17.016299
80290.0 17.016185
80300.0 17.016386
80310.0 17.016785
80320.0 17.017218
80330.0 17.017120
80340.0 17.016372
80350.0 17.015262
80360.0 17.013506
80370.0 17.012248
80380.0 17.011084
80390.0 17.010304
80400.0 17.009334
80410.0 17.007775
80420.0 17.005818
80430.0 17.004250
80440.0 17.002711
80450.0 17.001829
80460.0 17.001577
80470.0 17.001579
80480.0 17.001647
80490.0 17.001815
80500.0 17.002091
80510.0 17.002473
80520.0 17.003196
80530.0 17.004396
80540.0 17.005766
80550.0 17.006473
80560.0 17.006480
80570.0 17.005779
80580.0 17.004240
80590.0 17.002800
80600.0 17.000912
80610.0 16.999059
80620.0 16.997274
80630.0 16.995312
80640.0 16.993332
80650.0 16.991854
80660.0 16.991119
80670.0 16.990336
80680.0 16.989248
80690.0 16.988121
80700.0 16.986629
80710.0 16.984825
80720.0 16.983113
80730.0 16.981200
80740.0 16.979167
80750.0 16.977363
80760.0 16.975333
80770.0 16.973392
80780.0 16.971367
80790.0 16.969385
80800.0 16.967444
80810.0 16.965509
80820.0 16.963952
80830.0 16.962035
80840.0 16.960010
80850.0 16.957951
80860.0 16.956356
80870.0 16.954412
80880.0 16.952572
80890.0 16.950638
80900.0 16.949104
80910.0 16.947798
80920.0 16.946891
80930.0 16.945648
80940.0 16.944318
80950.0 16.942379
80960.0 16.940344
80970.0 16.938683
80980.0 16.936917
80990.0 16.934893
81000.0 16.933080
81010.0 16.931198
81020.0 16.929598
81030.0 16.928019
81040.0 16.926587
81050.0 16.925501
81060.0 16.924574
81070.0 16.923368
81080.0 16.922331
81090.0 16.921277
81100.0 16.919822
81110.0 16.917942
81120.0 16.916021
81130.0 16.913987
81140.0 16.912072
81150.0 16.910607
81160.0 16.909054
81170.0 16.907492
81180.0 16.905912
81190.0 16.904729
81200.0 16.903789
81210.0 16.903386
81220.0 16.903624
81230.0 16.904044
81240.0 16.903891
81250.0 16.903992
81260.0 16.904077
81270.0 16.904908
81280.0 16.905501
81290.0 16.906109
81300.0 16.906883
81310.0 16.908070
81320.0 16.908673
81330.0 16.909520
81340.0 16.910568
81350.0 16.911320
81360.0 16.911685
81370.0 16.911956
81380.0 16.912992
81390.0 16.913883
81400.0 16.915317
81410.0 16.917191
81420.0 16.918725
81430.0 16.919023
81440.0 16.919225
81450.0 16.919333
81460.0 16.919655
81470.0 16.920666
81480.0 16.921523
81490.0 16.922279
81500.0 16.923214
81510.0 16.925008
81520.0 16.926466
81530.0 16.928167
81540.0 16.930229
81550.0 16.932428
81560.0 16.934509
81570.0 16.936891
81580.0 16.939483
81590.0 16.940946
81600.0 16.942372
81610.0 16.944202
81620.0 16.946138
81630.0 16.948071
81640.0 16.950044
81650.0 16.952048
81660.0 16.954264
81670.0 16.956274
81680.0 16.957333
81690.0 16.958177
81700.0 16.958866
81710.0 16.959175
81720.0 16.959806
81730.0 16.960969
81740.0 16.962049
81750.0 16.962241
81760.0 16.961572
81770.0 16.960288
81780.0 16.958809
81790.0 16.957015
81800.0 16.955356
81810.0 16.953453
81820.0 16.952056
81830.0 16.950899
81840.0 16.949545
81850.0 16.947612
81860.0 16.945875
81870.0 16.944026
81880.0 16.942135
81890.0 16.940264
81900.0 16.938394
81910.0 16.937420
81920.0 16.936467
81930.0 16.935631
81940.0 16.934023
81950.0 16.932092
81960.0 16.930484
81970.0 16.929013
81980.0 16.927508
81990.0 16.925545
82000.0 16.923717
82010.0 16.921709
82020.0 16.919979
82030.0 16.918099
82040.0 16.916313
82050.0 16.914952
82060.0 16.914281
82070.0 16.913876
82080.0 16.914095
82090.0 16.914353
82100.0 16.914129
82110.0 16.913524
82120.0 16.912895
82130.0 16.912503
82140.0 16.912660
82150.0 16.913031
82160.0 16.913123
82170.0 16.913634
82180.0 16.913670
82190.0 16.913036
82200.0 16.911878
82210.0 16.910026
82220.0 16.908508
82230.0 16.906672
82240.0 16.905183
82250.0 16.903477
82260.0 16.901563
82270.0 16.899796
82280.0 16.897951
82290.0 16.896004
82300.0 16.894078
82310.0 16.892109
82320.0 16.890164
82330.0 16.888327
82340.0 16.886419
82350.0 16.884510
82360.0 16.883148
82370.0 16.881623
82380.0 16.879923
82390.0 16.878840
82400.0 16.877933
82410.0 16.876955
82420.0 16.876544
82430.0 16.876805
82440.0 16.876454
82450.0 16.876679
82460.0 16.876594
82470.0 16.876822
82480.0 16.877401
82490.0 16.878527
82500.0 16.879838
82510.0 16.881185
82520.0 16.883185
82530.0 16.885228
82540.0 16.886552
82550.0 16.887716
82560.0 16.888184
82570.0 16.889285
82580.0 16.891316
82590.0 16.893609
82600.0 16.895505
82610.0 16.896814
82620.0 16.897859
82630.0 16.898002
82640.0 16.897523
82650.0 16.897114
82660.0 16.896817
82670.0 16.896066
82680.0 16.895439
82690.0 16.894810
82700.0 16.893651
82710.0 16.892211
82720.0 16.891577
82730.0 16.890189
82740.0 16.888386
82750.0 16.886698
82760.0 16.885118
82770.0 16.883272
82780.0 16.881664
82790.0 16.881007
82800.0 16.880935
82810.0 16.880754
82820.0 16.880606
82830.0 16.880158
82840.0 16.879500
82850.0 16.878036
82860.0 16.876170
82870.0 16.874977
82880.0 16.873587
82890.0 16.871779
82900.0 16.869825
82910.0 16.868103
82920.0 16.866266
82930.0 16.864330
82940.0 16.862476
82950.0 16.860938
82960.0 16.860034
82970.0 16.859413
82980.0 16.858467
82990.0 16.857209
83000.0 16.855647
83010.0 16.854238
83020.0 16.853047
83030.0 16.851292
83040.0 16.849547
83050.0 16.847903
83060.0 16.846649
83070.0 16.846159
83080.0 16.845666
83090.0 16.845128
83100.0 16.844911
83110.0 16.845087
83120.0 16.845769
83130.0 16.845980
83140.0 16.845983
83150.0 16.845130
83160.0 16.843633
83170.0 16.842072
83180.0 16.840189
83190.0 16.838894
83200.0 16.837725
83210.0 16.837064
83220.0 16.837386
83230.0 16.838125
83240.0 16.838855
83250.0 16.839780
83260.0 16.840215
83270.0 16.839502
83280.0 16.839185
83290.0 16.839135
83300.0 16.838420
83310.0 16.837270
83320.0 16.835725
83330.0 16.834016
83340.0 16.832815
83350.0 16.831708
83360.0 16.830395
83370.0 16.829160
83380.0 16.828321
83390.0 16.827709
83400.0 16.826823
83410.0 16.825039
83420.0 16.823154
83430.0 16.821234
83440.0 16.819822
83450.0 16.818749
83460.0 16.817199
83470.0 16.815672
83480.0 16.813897
83490.0 16.812761
83500.0 16.811115
83510.0 16.809723
83520.0 16.808332
83530.0 16.807188
83540.0 16.806018
83550.0 16.804717
83560.0 16.803248
83570.0 16.801523
83580.0 16.799701
83590.0 16.798918
83600.0 16.798793
83610.0 16.798097
83620.0 16.797825
83630.0 16.797586
83640.0 16.797290
83650.0 16.797381
83660.0 16.796477
83670.0 16.795348
83680.0 16.794038
83690.0 16.792572
83700.0 16.791720
83710.0 16.791116
83720.0 16.789894
83730.0 16.788254
83740.0 16.786682
83750.0 16.785390
83760.0 16.785163
83770.0 16.785553
83780.0 16.785694
83790.0 16.785524
83800.0 16.784887
83810.0 16.783632
83820.0 16.782698
83830.0 16.781902
83840.0 16.781439
83850.0 16.780773
83860.0 16.780600
83870.0 16.781450
83880.0 16.782817
83890.0 16.783751
83900.0 16.784256
83910.0 16.784697
83920.0 16.784452
83930.0 16.783872
83940.0 16.782890
83950.0 16.782146
83960.0 16.781844
83970.0 16.781168
83980.0 16.780735
83990.0 16.780645
84000.0 16.780254
84010.0 16.779401
84020.0 16.778276
84030.0 16.777145
84040.0 16.775754
84050.0 16.774408
84060.0 16.772613
84070.0 16.770896
84080.0 16.769807
84090.0 16.768778
84100.0 16.767893
84110.0 16.767572
84120.0 16.768048
84130.0 16.768789
84140.0 16.768752
84150.0 16.768319
84160.0 16.768145
84170.0 16.768046
84180.0 16.768092
84190.0 16.766883
84200.0 16.765650
84210.0 16.764633
84220.0 16.763594
84230.0 16.762571
84240.0 16.761582
84250.0 16.761007
84260.0 16.760800
84270.0 16.760315
84280.0 16.759664
84290.0 16.758655
84300.0 16.757594
84310.0 16.756412
84320.0 16.754986
84330.0 16.753326
84340.0 16.751617
84350.0 16.749745
84360.0 16.747932
84370.0 16.746650
84380.0 16.745930
84390.0 16.744723
84400.0 16.742920
84410.0 16.741164
84420.0 16.739528
84430.0 16.737830
84440.0 16.736022
84450.0 16.734465
84460.0 16.733312
84470.0 16.733090
84480.0 16.733160
84490.0 16.733178
84500.0 16.732821
84510.0 16.732268
84520.0 16.731323
84530.0 16.729942
84540.0 16.728701
84550.0 16.727562
84560.0 16.726380
84570.0 16.725458
84580.0 16.724223
84590.0 16.723122
84600.0 16.721856
84610.0 16.720262
84620.0 16.718482
84630.0 16.716656
84640.0 16.715279
84650.0 16.714312
84660.0 16.713489
84670.0 16.711872
84680.0 16.710016
84690.0 16.708242
84700.0 16.707096
84710.0 16.706941
84720.0 16.706722
84730.0 16.706317
84740.0 16.705849
84750.0 16.704930
84760.0 16.703470
84770.0 16.702696
84780.0 16.702316
84790.0 16.701736
84800.0 16.701150
84810.0 16.700830
84820.0 16.699528
84830.0 16.698075
84840.0 16.697268
84850.0 16.696680
84860.0 16.696379
84870.0 16.696667
84880.0 16.697378
84890.0 16.698734
84900.0 16.699995
84910.0 16.701000
84920.0 16.702958
84930.0 16.705444
84940.0 16.707845
84950.0 16.710319
84960.0 16.712484
84970.0 16.714945
84980.0 16.717244
84990.0 16.719845
85000.0 16.722837
85010.0 16.725847
85020.0 16.729017
85030.0 16.731899
85040.0 16.735145
85050.0 16.738897
85060.0 16.742561
85070.0 16.745944
85080.0 16.749404
85090.0 16.753111
85100.0 16.756593
85110.0 16.760091
85120.0 16.763604
85130.0 16.767398
85140.0 16.771067
85150.0 16.775140
85160.0 16.779526
85170.0 16.784045
85180.0 16.789230
85190.0 16.794932
85200.0 16.800761
85210.0 16.807160
85220.0 16.813435
85230.0 16.819862
85240.0 16.826317
85250.0 16.832562
85260.0 16.838242
85270.0 16.844201
85280.0 16.850080
85290.0 16.855961
85300.0 16.861913
85310.0 16.868221
85320.0 16.875600
85330.0 16.883117
85340.0 16.890675
85350.0 16.898760
85360.0 16.907002
85370.0 16.915029
85380.0 16.923235
85390.0 16.932084
85400.0 16.940610
85410.0 16.948293
85420.0 16.955790
85430.0 16.963609
85440.0 16.971526
85450.0 16.979684
85460.0 16.988430
85470.0 16.997285
85480.0 17.006348
85490.0 17.016079
85500.0 17.025960
85510.0 17.035515
85520.0 17.045736
85530.0 17.055886
85540.0 17.065391
85550.0 17.075973
85560.0 17.086175
85570.0 17.096394
85580.0 17.106319
85590.0 17.116251
85600.0 17.126512
85610.0 17.137454
85620.0 17.148101
85630.0 17.158653
85640.0 17.169002
85650.0 17.179608
85660.0 17.191186
85670.0 17.203376
85680.0 17.215639
85690.0 17.227094
85700.0 17.238726
85710.0 17.249978
85720.0 17.261335
85730.0 17.272447
85740.0 17.283460
85750.0 17.293769
85760.0 17.303731
85770.0 17.313186
85780.0 17.322270
85790.0 17.331047
85800.0 17.340108
85810.0 17.350035
85820.0 17.360424
85830.0 17.370224
85840.0 17.379172
85850.0 17.388158
85860.0 17.396674
85870.0 17.405001
85880.0 17.413096
85890.0 17.421713
85900.0 17.430378
85910.0 17.438347
85920.0 17.445838
85930.0 17.453370
85940.0 17.460570
85950.0 17.467090
85960.0 17.473330
85970.0 17.479524
85980.0 17.485197
85990.0 17.491421
86000.0 17.497454
86010.0 17.502999
86020.0 17.508727
86030.0 17.513972
86040.0 17.519779
86050.0 17.525738
86060.0 17.532068
86070.0 17.538312
86080.0 17.543853
86090.0 17.548478
86100.0 17.552904
86110.0 17.556710
86120.0 17.560337
86130.0 17.563659
86140.0 17.566599
86150.0 17.569625
86160.0 17.572351
86170.0 17.574837
86180.0 17.577662
86190.0 17.580344
86200.0 17.583042
86210.0 17.586069
86220.0 17.589464
86230.0 17.592379
86240.0 17.595227
86250.0 17.598377
86260.0 17.601555
86270.0 17.604791
86280.0 17.607648
86290.0 17.610220
86300.0 17.612866
86310.0 17.615785
86320.0 17.618565
86330.0 17.621499
86340.0 17.624397
86350.0 17.626820
86360.0 17.628901
86370.0 17.630958
86380.0 17.633563
86390.0 17.636881
86400.0 17.639587
86400.0 17.639587
